Time,Channel A
(ms),(V)

0.00000000,-9.26755600
0.00032000,-9.26755600
0.00064000,-9.26755600
0.00096000,-9.26755600
0.00128000,-9.26755600
0.00160000,-9.26755600
0.00192000,-9.26755600
0.00224000,-9.26755600
0.00256000,-9.35666900
0.00288000,-9.35666900
0.00320000,-9.26755600
0.00352000,-9.26755600
0.00384000,-9.26755600
0.00416000,-9.26755600
0.00448000,-9.35666900
0.00480000,-9.26755600
0.00512000,-9.26755600
0.00544000,-9.26755600
0.00576000,-9.26755600
0.00608000,-9.26755600
0.00640000,-9.35666900
0.00672000,-9.35666900
0.00704000,-9.26755600
0.00736000,-9.26755600
0.00768000,-9.26755600
0.00800000,-9.26755600
0.00832000,-9.26755600
0.00864000,-9.26755600
0.00896000,-9.26755600
0.00928000,-9.26755600
0.00960000,-9.26755600
0.00992000,-9.26755600
0.01024000,-9.26755600
0.01056000,-9.26755600
0.01088000,-9.26755600
0.01120000,-9.26755600
0.01152000,-9.26755600
0.01184000,-9.26755600
0.01216000,-9.26755600
0.01248000,-9.26755600
0.01280000,-9.26755600
0.01312000,-9.26755600
0.01344000,-9.26755600
0.01376000,-9.26755600
0.01408000,-9.26755600
0.01440000,-9.26755600
0.01472000,-9.26755600
0.01504000,-9.26755600
0.01536000,-9.26755600
0.01568000,-9.26755600
0.01600000,-9.26755600
0.01632000,-9.26755600
0.01664000,-9.26755600
0.01696000,-9.26755600
0.01728000,-9.26755600
0.01760000,-9.26755600
0.01792000,-9.26755600
0.01824000,-9.35666900
0.01856000,-9.26755600
0.01888000,-9.26755600
0.01920000,-9.26755600
0.01952000,-9.26755600
0.01984000,-9.35666900
0.02016000,-9.26755600
0.02048000,-9.26755600
0.02080000,-9.26755600
0.02112000,-9.26755600
0.02144000,-9.26755600
0.02176000,-9.26755600
0.02208000,-9.35666900
0.02240000,-9.26755600
0.02272000,-9.26755600
0.02304000,-9.26755600
0.02336000,-9.26755600
0.02368000,-9.26755600
0.02400000,-9.26755600
0.02432000,-9.26755600
0.02464000,-9.26755600
0.02496000,-9.26755600
0.02528000,-9.26755600
0.02560000,-9.26755600
0.02592000,-9.26755600
0.02624000,-9.26755600
0.02656000,-9.26755600
0.02688000,-9.26755600
0.02720000,-9.26755600
0.02752000,-9.26755600
0.02784000,-9.26755600
0.02816000,-9.26755600
0.02848000,-9.26755600
0.02880000,-9.26755600
0.02912000,-9.26755600
0.02944000,-9.26755600
0.02976000,-9.26755600
0.03008000,-9.26755600
0.03040000,-9.26755600
0.03072000,-9.26755600
0.03104000,-9.26755600
0.03136000,-9.26755600
0.03168000,-9.26755600
0.03200000,-9.26755600
0.03232000,-9.35666900
0.03264000,-9.26755600
0.03296000,-9.26755600
0.03328000,-9.26755600
0.03360000,-9.26755600
0.03392000,-9.26755600
0.03424000,-9.26755600
0.03456000,-9.26755600
0.03488000,-9.26755600
0.03520000,-9.26755600
0.03552000,-9.26755600
0.03584000,-9.26755600
0.03616000,-9.26755600
0.03648000,-9.26755600
0.03680000,-9.26755600
0.03712000,-9.26755600
0.03744000,-9.26755600
0.03776000,-9.26755600
0.03808000,-9.26755600
0.03840000,-9.26755600
0.03872000,-9.26755600
0.03904000,-9.26755600
0.03936000,-9.35666900
0.03968000,-9.26755600
0.04000000,-9.26755600
0.04032000,-9.26755600
0.04064000,-9.26755600
0.04096000,-9.26755600
0.04128000,-9.35666900
0.04160000,-9.35666900
0.04192000,-9.26755600
0.04224000,-9.26755600
0.04256000,-9.35666900
0.04288000,-9.26755600
0.04320000,-9.26755600
0.04352000,-9.26755600
0.04384000,-9.26755600
0.04416000,-9.26755600
0.04448000,-9.26755600
0.04480000,-9.26755600
0.04512000,-9.26755600
0.04544000,-9.26755600
0.04576000,-9.26755600
0.04608000,-9.26755600
0.04640000,-9.26755600
0.04672000,-9.35666900
0.04704000,-9.26755600
0.04736000,-9.26755600
0.04768000,-9.26755600
0.04800000,-9.35666900
0.04832000,-9.26755600
0.04864000,-9.26755600
0.04896000,-9.35666900
0.04928000,-9.26755600
0.04960000,-9.26755600
0.04992000,-9.26755600
0.05024000,-9.26755600
0.05056000,-9.35666900
0.05088000,-9.26755600
0.05120000,-9.26755600
0.05152000,-9.26755600
0.05184000,-9.26755600
0.05216000,-9.26755600
0.05248000,-9.35666900
0.05280000,-9.26755600
0.05312000,-9.26755600
0.05344000,-9.26755600
0.05376000,-9.26755600
0.05408000,-9.26755600
0.05440000,-9.26755600
0.05472000,-9.26755600
0.05504000,-9.26755600
0.05536000,-9.26755600
0.05568000,-9.26755600
0.05600000,-9.26755600
0.05632000,-9.26755600
0.05664000,-9.26755600
0.05696000,-9.35666900
0.05728000,-9.35666900
0.05760000,-9.26755600
0.05792000,-9.26755600
0.05824000,-9.26755600
0.05856000,-9.26755600
0.05888000,-9.26755600
0.05920000,-9.26755600
0.05952000,-9.26755600
0.05984000,-9.35666900
0.06016000,-9.26755600
0.06048000,-9.26755600
0.06080000,-9.26755600
0.06112000,-9.26755600
0.06144000,-9.26755600
0.06176000,-9.35666900
0.06208000,-9.26755600
0.06240000,-9.26755600
0.06272000,-9.26755600
0.06304000,-9.26755600
0.06336000,-9.26755600
0.06368000,-9.35666900
0.06400000,-9.26755600
0.06432000,-9.26755600
0.06464000,-9.26755600
0.06496000,-9.26755600
0.06528000,-9.26755600
0.06560000,-9.26755600
0.06592000,-9.26755600
0.06624000,-9.26755600
0.06656000,-9.35666900
0.06688000,-9.26755600
0.06720000,-9.26755600
0.06752000,-9.26755600
0.06784000,-9.26755600
0.06816000,-9.26755600
0.06848000,-9.26755600
0.06880000,-9.26755600
0.06912000,-9.26755600
0.06944000,-9.35666900
0.06976000,-9.26755600
0.07008000,-9.26755600
0.07040000,-9.26755600
0.07072000,-9.26755600
0.07104000,-9.26755600
0.07136000,-9.26755600
0.07168000,-9.26755600
0.07200000,-9.35666900
0.07232000,-9.26755600
0.07264000,-9.26755600
0.07296000,-9.26755600
0.07328000,-9.26755600
0.07360000,-9.26755600
0.07392000,-9.26755600
0.07424000,-9.26755600
0.07456000,-9.26755600
0.07488000,-9.26755600
0.07520000,-9.26755600
0.07552000,-9.26755600
0.07584000,-9.26755600
0.07616000,-9.26755600
0.07648000,-9.26755600
0.07680000,-9.26755600
0.07712000,-9.26755600
0.07744000,-9.26755600
0.07776000,-9.26755600
0.07808000,-9.26755600
0.07840000,-9.26755600
0.07872000,-9.26755600
0.07904000,-9.35666900
0.07936000,-9.26755600
0.07968000,-9.26755600
0.08000000,-9.26755600
0.08032000,-9.35666900
0.08064000,-9.26755600
0.08096000,-9.35666900
0.08128000,-9.26755600
0.08160000,-9.26755600
0.08192000,-9.35666900
0.08224000,-9.26755600
0.08256000,-9.26755600
0.08288000,-9.26755600
0.08320000,-9.35666900
0.08352000,-9.26755600
0.08384000,-9.26755600
0.08416000,-9.26755600
0.08448000,-9.26755600
0.08480000,-9.26755600
0.08512000,-9.26755600
0.08544000,-9.35666900
0.08576000,-9.26755600
0.08608000,-9.35666900
0.08640000,-9.26755600
0.08672000,-9.26755600
0.08704000,-9.26755600
0.08736000,-9.26755600
0.08768000,-9.26755600
0.08800000,-9.26755600
0.08832000,-9.26755600
0.08864000,-9.26755600
0.08896000,-9.26755600
0.08928000,-9.26755600
0.08960000,-9.26755600
0.08992000,-9.26755600
0.09024000,-9.26755600
0.09056000,-9.26755600
0.09088000,-9.26755600
0.09120000,-9.26755600
0.09152000,-9.26755600
0.09184000,-9.26755600
0.09216000,-9.26755600
0.09248000,-9.26755600
0.09280000,-9.26755600
0.09312000,-9.35666900
0.09344000,-9.26755600
0.09376000,-9.35666900
0.09408000,-9.26755600
0.09440000,-9.26755600
0.09472000,-9.26755600
0.09504000,-9.26755600
0.09536000,-9.26755600
0.09568000,-9.26755600
0.09600000,-9.35666900
0.09632000,-9.26755600
0.09664000,-9.26755600
0.09696000,-9.26755600
0.09728000,-9.35666900
0.09760000,-9.35666900
0.09792000,-9.26755600
0.09824000,-9.35666900
0.09856000,-9.26755600
0.09888000,-9.26755600
0.09920000,-9.26755600
0.09952000,-9.26755600
0.09984000,-9.26755600
0.10016000,-9.26755600
0.10048000,-9.26755600
0.10080000,-9.26755600
0.10112000,-9.26755600
0.10144000,-9.26755600
0.10176000,-9.26755600
0.10208000,-9.26755600
0.10240000,-9.26755600
0.10272000,-9.26755600
0.10304000,-9.26755600
0.10336000,-9.26755600
0.10368000,-9.26755600
0.10400000,-9.35666900
0.10432000,-9.26755600
0.10464000,-9.26755600
0.10496000,-9.26755600
0.10528000,-9.26755600
0.10560000,-9.35666900
0.10592000,-9.26755600
0.10624000,-9.26755600
0.10656000,-9.26755600
0.10688000,-9.35666900
0.10720000,-9.35666900
0.10752000,-9.26755600
0.10784000,-9.26755600
0.10816000,-9.26755600
0.10848000,-9.26755600
0.10880000,-9.26755600
0.10912000,-9.26755600
0.10944000,-9.26755600
0.10976000,-9.35666900
0.11008000,-9.26755600
0.11040000,-9.26755600
0.11072000,-9.26755600
0.11104000,-9.26755600
0.11136000,-9.26755600
0.11168000,-9.26755600
0.11200000,-9.26755600
0.11232000,-9.26755600
0.11264000,-9.26755600
0.11296000,-9.26755600
0.11328000,-9.26755600
0.11360000,-9.26755600
0.11392000,-9.26755600
0.11424000,-9.26755600
0.11456000,-9.26755600
0.11488000,-9.26755600
0.11520000,-9.26755600
0.11552000,-9.26755600
0.11584000,-9.26755600
0.11616000,-9.26755600
0.11648000,-9.35666900
0.11680000,-9.26755600
0.11712000,-9.26755600
0.11744000,-9.26755600
0.11776000,-9.26755600
0.11808000,-9.26755600
0.11840000,-9.35666900
0.11872000,-9.26755600
0.11904000,-9.26755600
0.11936000,-9.26755600
0.11968000,-9.26755600
0.12000000,-9.35666900
0.12032000,-9.26755600
0.12064000,-9.26755600
0.12096000,-9.26755600
0.12128000,-9.26755600
0.12160000,-9.26755600
0.12192000,-9.26755600
0.12224000,-9.35666900
0.12256000,-9.35666900
0.12288000,-9.35666900
0.12320000,-9.26755600
0.12352000,-9.26755600
0.12384000,-9.26755600
0.12416000,-9.26755600
0.12448000,-9.26755600
0.12480000,-9.26755600
0.12512000,-9.26755600
0.12544000,-9.26755600
0.12576000,-9.35666900
0.12608000,-9.26755600
0.12640000,-9.26755600
0.12672000,-9.26755600
0.12704000,-9.26755600
0.12736000,-9.26755600
0.12768000,-9.26755600
0.12800000,-9.26755600
0.12832000,-9.35666900
0.12864000,-9.26755600
0.12896000,-9.26755600
0.12928000,-9.26755600
0.12960000,-9.26755600
0.12992000,-9.26755600
0.13024000,-9.26755600
0.13056000,-9.26755600
0.13088000,-9.26755600
0.13120000,-9.26755600
0.13152000,-9.26755600
0.13184000,-9.26755600
0.13216000,-9.35666900
0.13248000,-9.26755600
0.13280000,-9.26755600
0.13312000,-9.26755600
0.13344000,-9.26755600
0.13376000,-9.26755600
0.13408000,-9.26755600
0.13440000,-9.35666900
0.13472000,-9.26755600
0.13504000,-9.26755600
0.13536000,-9.35666900
0.13568000,-9.26755600
0.13600000,-9.26755600
0.13632000,-9.26755600
0.13664000,-9.35666900
0.13696000,-9.26755600
0.13728000,-9.26755600
0.13760000,-9.26755600
0.13792000,-9.35666900
0.13824000,-9.26755600
0.13856000,-9.26755600
0.13888000,-9.26755600
0.13920000,-9.26755600
0.13952000,-9.26755600
0.13984000,-9.35666900
0.14016000,-9.26755600
0.14048000,-9.35666900
0.14080000,-9.26755600
0.14112000,-9.26755600
0.14144000,-9.26755600
0.14176000,-9.26755600
0.14208000,-9.26755600
0.14240000,-9.35666900
0.14272000,-9.35666900
0.14304000,-9.26755600
0.14336000,-9.26755600
0.14368000,-9.26755600
0.14400000,-9.26755600
0.14432000,-9.26755600
0.14464000,-9.26755600
0.14496000,-9.26755600
0.14528000,-9.26755600
0.14560000,-9.26755600
0.14592000,-9.26755600
0.14624000,-9.26755600
0.14656000,-9.26755600
0.14688000,-9.26755600
0.14720000,-9.26755600
0.14752000,-9.26755600
0.14784000,-9.26755600
0.14816000,-9.26755600
0.14848000,-9.26755600
0.14880000,-9.26755600
0.14912000,-9.35666900
0.14944000,-9.26755600
0.14976000,-9.26755600
0.15008000,-9.35666900
0.15040000,-9.35666900
0.15072000,-9.35666900
0.15104000,-9.26755600
0.15136000,-9.26755600
0.15168000,-9.26755600
0.15200000,-9.35666900
0.15232000,-9.26755600
0.15264000,-9.26755600
0.15296000,-9.26755600
0.15328000,-9.26755600
0.15360000,-9.26755600
0.15392000,-9.26755600
0.15424000,-9.26755600
0.15456000,-9.26755600
0.15488000,-9.26755600
0.15520000,-9.26755600
0.15552000,-9.26755600
0.15584000,-9.26755600
0.15616000,-9.26755600
0.15648000,-9.26755600
0.15680000,-9.26755600
0.15712000,-9.26755600
0.15744000,-9.26755600
0.15776000,-9.26755600
0.15808000,-9.26755600
0.15840000,-9.26755600
0.15872000,-9.26755600
0.15904000,-9.26755600
0.15936000,-9.26755600
0.15968000,-9.35666900
0.16000000,-9.26755600
0.16032000,-9.26755600
0.16064000,-9.26755600
0.16096000,-9.26755600
0.16128000,-9.26755600
0.16160000,-9.26755600
0.16192000,-9.26755600
0.16224000,-9.26755600
0.16256000,-9.26755600
0.16288000,-9.26755600
0.16320000,-9.26755600
0.16352000,-9.26755600
0.16384000,-9.35666900
0.16416000,-9.26755600
0.16448000,-9.26755600
0.16480000,-9.26755600
0.16512000,-9.26755600
0.16544000,-9.26755600
0.16576000,-9.26755600
0.16608000,-9.26755600
0.16640000,-9.26755600
0.16672000,-9.26755600
0.16704000,-9.35666900
0.16736000,-9.26755600
0.16768000,-9.26755600
0.16800000,-9.26755600
0.16832000,-9.26755600
0.16864000,-9.26755600
0.16896000,-9.26755600
0.16928000,-9.26755600
0.16960000,-9.26755600
0.16992000,-9.26755600
0.17024000,-9.26755600
0.17056000,-9.26755600
0.17088000,-9.26755600
0.17120000,-9.26755600
0.17152000,-9.35666900
0.17184000,-9.26755600
0.17216000,-9.26755600
0.17248000,-9.26755600
0.17280000,-9.26755600
0.17312000,-9.26755600
0.17344000,-9.26755600
0.17376000,-9.26755600
0.17408000,-9.26755600
0.17440000,-9.26755600
0.17472000,-9.26755600
0.17504000,-9.26755600
0.17536000,-9.26755600
0.17568000,-9.26755600
0.17600000,-9.26755600
0.17632000,-9.26755600
0.17664000,-9.26755600
0.17696000,-9.26755600
0.17728000,-9.26755600
0.17760000,-9.26755600
0.17792000,-9.26755600
0.17824000,-9.26755600
0.17856000,-9.35666900
0.17888000,-9.26755600
0.17920000,-9.26755600
0.17952000,-9.35666900
0.17984000,-9.35666900
0.18016000,-9.26755600
0.18048000,-9.26755600
0.18080000,-9.26755600
0.18112000,-9.26755600
0.18144000,-9.26755600
0.18176000,-9.26755600
0.18208000,-9.26755600
0.18240000,-9.26755600
0.18272000,-9.26755600
0.18304000,-9.35666900
0.18336000,-9.35666900
0.18368000,-9.35666900
0.18400000,-9.26755600
0.18432000,-9.26755600
0.18464000,-9.26755600
0.18496000,-9.26755600
0.18528000,-9.26755600
0.18560000,-9.26755600
0.18592000,-9.26755600
0.18624000,-9.26755600
0.18656000,-9.26755600
0.18688000,-9.26755600
0.18720000,-9.26755600
0.18752000,-9.26755600
0.18784000,-9.26755600
0.18816000,-9.35666900
0.18848000,-9.26755600
0.18880000,-9.26755600
0.18912000,-9.26755600
0.18944000,-9.26755600
0.18976000,-9.26755600
0.19008000,-9.26755600
0.19040000,-9.26755600
0.19072000,-9.26755600
0.19104000,-9.26755600
0.19136000,-9.26755600
0.19168000,-9.26755600
0.19200000,-9.26755600
0.19232000,-9.26755600
0.19264000,-9.26755600
0.19296000,-9.26755600
0.19328000,-9.26755600
0.19360000,-9.26755600
0.19392000,-9.35666900
0.19424000,-9.26755600
0.19456000,-9.26755600
0.19488000,-9.26755600
0.19520000,-9.26755600
0.19552000,-9.35666900
0.19584000,-9.26755600
0.19616000,-9.26755600
0.19648000,-9.35666900
0.19680000,-9.26755600
0.19712000,-9.35666900
0.19744000,-9.35666900
0.19776000,-9.26755600
0.19808000,-9.26755600
0.19840000,-9.26755600
0.19872000,-9.26755600
0.19904000,-9.35666900
0.19936000,-9.26755600
0.19968000,-9.26755600
0.20000000,-9.26755600
0.20032000,-9.26755600
0.20064000,-9.26755600
0.20096000,-9.26755600
0.20128000,-9.26755600
0.20160000,-9.26755600
0.20192000,-9.26755600
0.20224000,-9.26755600
0.20256000,-9.26755600
0.20288000,-9.35666900
0.20320000,-9.26755600
0.20352000,-9.26755600
0.20384000,-9.35666900
0.20416000,-9.26755600
0.20448000,-9.26755600
0.20480000,-9.26755600
0.20512000,-9.26755600
0.20544000,-9.35666900
0.20576000,-9.26755600
0.20608000,-9.26755600
0.20640000,-9.26755600
0.20672000,-9.26755600
0.20704000,-9.26755600
0.20736000,-9.26755600
0.20768000,-9.26755600
0.20800000,-9.26755600
0.20832000,-9.26755600
0.20864000,-9.26755600
0.20896000,-9.26755600
0.20928000,-9.26755600
0.20960000,-9.26755600
0.20992000,-9.26755600
0.21024000,-9.26755600
0.21056000,-9.26755600
0.21088000,-9.26755600
0.21120000,-9.26755600
0.21152000,-9.26755600
0.21184000,-9.26755600
0.21216000,-9.26755600
0.21248000,-9.26755600
0.21280000,-9.26755600
0.21312000,-9.26755600
0.21344000,-9.26755600
0.21376000,-9.26755600
0.21408000,-9.26755600
0.21440000,-9.26755600
0.21472000,-9.35666900
0.21504000,-9.26755600
0.21536000,-9.26755600
0.21568000,-9.26755600
0.21600000,-9.26755600
0.21632000,-9.26755600
0.21664000,-9.26755600
0.21696000,-9.26755600
0.21728000,-9.26755600
0.21760000,-9.26755600
0.21792000,-9.26755600
0.21824000,-9.26755600
0.21856000,-9.26755600
0.21888000,-9.26755600
0.21920000,-9.26755600
0.21952000,-9.26755600
0.21984000,-9.26755600
0.22016000,-9.26755600
0.22048000,-9.26755600
0.22080000,-9.26755600
0.22112000,-9.26755600
0.22144000,-9.26755600
0.22176000,-9.26755600
0.22208000,-9.26755600
0.22240000,-9.26755600
0.22272000,-9.26755600
0.22304000,-9.35666900
0.22336000,-9.26755600
0.22368000,-9.35666900
0.22400000,-9.26755600
0.22432000,-9.26755600
0.22464000,-9.26755600
0.22496000,-9.26755600
0.22528000,-9.26755600
0.22560000,-9.26755600
0.22592000,-9.26755600
0.22624000,-9.26755600
0.22656000,-9.26755600
0.22688000,-9.26755600
0.22720000,-9.26755600
0.22752000,-9.26755600
0.22784000,-9.26755600
0.22816000,-9.26755600
0.22848000,-9.35666900
0.22880000,-9.26755600
0.22912000,-9.26755600
0.22944000,-9.26755600
0.22976000,-9.26755600
0.23008000,-9.26755600
0.23040000,-9.35666900
0.23072000,-9.26755600
0.23104000,-9.26755600
0.23136000,-9.26755600
0.23168000,-9.26755600
0.23200000,-9.26755600
0.23232000,-9.26755600
0.23264000,-9.26755600
0.23296000,-9.35666900
0.23328000,-9.26755600
0.23360000,-9.26755600
0.23392000,-9.26755600
0.23424000,-9.26755600
0.23456000,-9.26755600
0.23488000,-9.26755600
0.23520000,-9.35666900
0.23552000,-9.26755600
0.23584000,-9.26755600
0.23616000,-9.35666900
0.23648000,-9.26755600
0.23680000,-9.26755600
0.23712000,-9.35666900
0.23744000,-9.26755600
0.23776000,-9.26755600
0.23808000,-9.26755600
0.23840000,-9.26755600
0.23872000,-9.26755600
0.23904000,-9.26755600
0.23936000,-9.26755600
0.23968000,-9.26755600
0.24000000,-9.26755600
0.24032000,-9.26755600
0.24064000,-9.26755600
0.24096000,-9.26755600
0.24128000,-9.26755600
0.24160000,-9.26755600
0.24192000,-9.26755600
0.24224000,-9.26755600
0.24256000,-9.26755600
0.24288000,-9.35666900
0.24320000,-9.26755600
0.24352000,-9.26755600
0.24384000,-9.26755600
0.24416000,-9.26755600
0.24448000,-9.26755600
0.24480000,-9.26755600
0.24512000,-9.26755600
0.24544000,-9.26755600
0.24576000,-9.26755600
0.24608000,-9.26755600
0.24640000,-9.26755600
0.24672000,-9.26755600
0.24704000,-9.26755600
0.24736000,-9.26755600
0.24768000,-9.26755600
0.24800000,-9.26755600
0.24832000,-9.26755600
0.24864000,-9.35666900
0.24896000,-9.26755600
0.24928000,-9.26755600
0.24960000,-9.26755600
0.24992000,-9.35666900
0.25024000,-9.35666900
0.25056000,-9.26755600
0.25088000,-9.26755600
0.25120000,-9.26755600
0.25152000,-9.26755600
0.25184000,-9.26755600
0.25216000,-9.26755600
0.25248000,-9.26755600
0.25280000,-9.26755600
0.25312000,-9.26755600
0.25344000,-9.26755600
0.25376000,-9.26755600
0.25408000,-9.26755600
0.25440000,-9.26755600
0.25472000,-9.26755600
0.25504000,-9.26755600
0.25536000,-9.26755600
0.25568000,-9.26755600
0.25600000,-9.26755600
0.25632000,-9.26755600
0.25664000,-9.26755600
0.25696000,-9.35666900
0.25728000,-9.26755600
0.25760000,-9.26755600
0.25792000,-9.26755600
0.25824000,-9.26755600
0.25856000,-9.35666900
0.25888000,-9.26755600
0.25920000,-9.26755600
0.25952000,-9.26755600
0.25984000,-9.26755600
0.26016000,-9.35666900
0.26048000,-9.35666900
0.26080000,-9.26755600
0.26112000,-9.26755600
0.26144000,-9.26755600
0.26176000,-9.26755600
0.26208000,-9.26755600
0.26240000,-9.26755600
0.26272000,-9.35666900
0.26304000,-9.26755600
0.26336000,-9.26755600
0.26368000,-9.26755600
0.26400000,-9.26755600
0.26432000,-9.26755600
0.26464000,-9.26755600
0.26496000,-9.26755600
0.26528000,-9.26755600
0.26560000,-9.26755600
0.26592000,-9.26755600
0.26624000,-9.26755600
0.26656000,-9.26755600
0.26688000,-9.26755600
0.26720000,-9.26755600
0.26752000,-9.26755600
0.26784000,-9.26755600
0.26816000,-9.26755600
0.26848000,-9.26755600
0.26880000,-9.26755600
0.26912000,-9.26755600
0.26944000,-9.26755600
0.26976000,-9.26755600
0.27008000,-9.35666900
0.27040000,-9.26755600
0.27072000,-9.26755600
0.27104000,-9.26755600
0.27136000,-9.35666900
0.27168000,-9.26755600
0.27200000,-9.26755600
0.27232000,-9.35666900
0.27264000,-9.26755600
0.27296000,-9.35666900
0.27328000,-9.26755600
0.27360000,-9.26755600
0.27392000,-9.35666900
0.27424000,-9.26755600
0.27456000,-9.26755600
0.27488000,-9.26755600
0.27520000,-9.26755600
0.27552000,-9.26755600
0.27584000,-9.26755600
0.27616000,-9.26755600
0.27648000,-9.35666900
0.27680000,-9.26755600
0.27712000,-9.26755600
0.27744000,-9.26755600
0.27776000,-9.26755600
0.27808000,-9.35666900
0.27840000,-9.26755600
0.27872000,-9.26755600
0.27904000,-9.26755600
0.27936000,-9.26755600
0.27968000,-9.26755600
0.28000000,-9.26755600
0.28032000,-9.26755600
0.28064000,-9.26755600
0.28096000,-9.26755600
0.28128000,-9.26755600
0.28160000,-9.26755600
0.28192000,-9.26755600
0.28224000,-9.26755600
0.28256000,-9.26755600
0.28288000,-9.35666900
0.28320000,-9.35666900
0.28352000,-9.35666900
0.28384000,-9.26755600
0.28416000,-9.26755600
0.28448000,-9.26755600
0.28480000,-9.35666900
0.28512000,-9.26755600
0.28544000,-9.26755600
0.28576000,-9.26755600
0.28608000,-9.26755600
0.28640000,-9.26755600
0.28672000,-9.26755600
0.28704000,-9.26755600
0.28736000,-9.26755600
0.28768000,-9.26755600
0.28800000,-9.26755600
0.28832000,-9.26755600
0.28864000,-9.35666900
0.28896000,-9.26755600
0.28928000,-9.35666900
0.28960000,-9.26755600
0.28992000,-9.26755600
0.29024000,-9.26755600
0.29056000,-9.35666900
0.29088000,-9.35666900
0.29120000,-9.26755600
0.29152000,-9.26755600
0.29184000,-9.26755600
0.29216000,-9.35666900
0.29248000,-9.35666900
0.29280000,-9.26755600
0.29312000,-9.35666900
0.29344000,-9.26755600
0.29376000,-9.26755600
0.29408000,-9.35666900
0.29440000,-9.35666900
0.29472000,-9.26755600
0.29504000,-9.26755600
0.29536000,-9.26755600
0.29568000,-9.26755600
0.29600000,-9.26755600
0.29632000,-9.26755600
0.29664000,-9.35666900
0.29696000,-9.26755600
0.29728000,-9.26755600
0.29760000,-9.26755600
0.29792000,-9.26755600
0.29824000,-9.26755600
0.29856000,-9.26755600
0.29888000,-9.26755600
0.29920000,-9.26755600
0.29952000,-9.35666900
0.29984000,-9.35666900
0.30016000,-9.26755600
0.30048000,-9.26755600
0.30080000,-9.26755600
0.30112000,-9.26755600
0.30144000,-9.26755600
0.30176000,-9.26755600
0.30208000,-9.26755600
0.30240000,-9.26755600
0.30272000,-9.26755600
0.30304000,-9.26755600
0.30336000,-9.26755600
0.30368000,-9.35666900
0.30400000,-9.26755600
0.30432000,-9.26755600
0.30464000,-9.26755600
0.30496000,-9.26755600
0.30528000,-9.26755600
0.30560000,-9.26755600
0.30592000,-9.26755600
0.30624000,-9.26755600
0.30656000,-9.26755600
0.30688000,-9.35666900
0.30720000,-9.26755600
0.30752000,-9.26755600
0.30784000,-9.26755600
0.30816000,-9.35666900
0.30848000,-9.35666900
0.30880000,-9.26755600
0.30912000,-9.35666900
0.30944000,-9.35666900
0.30976000,-9.26755600
0.31008000,-9.26755600
0.31040000,-9.26755600
0.31072000,-9.26755600
0.31104000,-9.26755600
0.31136000,-9.26755600
0.31168000,-9.26755600
0.31200000,-9.26755600
0.31232000,-9.26755600
0.31264000,-9.26755600
0.31296000,-9.35666900
0.31328000,-9.35666900
0.31360000,-9.26755600
0.31392000,-9.26755600
0.31424000,-9.26755600
0.31456000,-9.26755600
0.31488000,-9.26755600
0.31520000,-9.26755600
0.31552000,-9.26755600
0.31584000,-9.26755600
0.31616000,-9.26755600
0.31648000,-9.26755600
0.31680000,-9.26755600
0.31712000,-9.26755600
0.31744000,-9.26755600
0.31776000,-9.26755600
0.31808000,-9.26755600
0.31840000,-9.35666900
0.31872000,-9.26755600
0.31904000,-9.26755600
0.31936000,-9.35666900
0.31968000,-9.26755600
0.32000000,-9.26755600
0.32032000,-9.26755600
0.32064000,-9.26755600
0.32096000,-9.26755600
0.32128000,-9.26755600
0.32160000,-9.26755600
0.32192000,-9.26755600
0.32224000,-9.26755600
0.32256000,-9.26755600
0.32288000,-9.26755600
0.32320000,-9.26755600
0.32352000,-9.26755600
0.32384000,-9.26755600
0.32416000,-9.26755600
0.32448000,-9.26755600
0.32480000,-9.26755600
0.32512000,-9.26755600
0.32544000,-9.35666900
0.32576000,-9.26755600
0.32608000,-9.35666900
0.32640000,-9.26755600
0.32672000,-9.26755600
0.32704000,-9.26755600
0.32736000,-9.26755600
0.32768000,-9.26755600
0.32800000,-9.26755600
0.32832000,-9.26755600
0.32864000,-9.26755600
0.32896000,-9.26755600
0.32928000,-9.26755600
0.32960000,-9.35666900
0.32992000,-9.26755600
0.33024000,-9.26755600
0.33056000,-9.26755600
0.33088000,-9.26755600
0.33120000,-9.26755600
0.33152000,-9.26755600
0.33184000,-9.26755600
0.33216000,-9.26755600
0.33248000,-9.35666900
0.33280000,-9.26755600
0.33312000,-9.26755600
0.33344000,-9.26755600
0.33376000,-9.26755600
0.33408000,-9.26755600
0.33440000,-9.35666900
0.33472000,-9.35666900
0.33504000,-9.26755600
0.33536000,-9.26755600
0.33568000,-9.26755600
0.33600000,-9.26755600
0.33632000,-9.26755600
0.33664000,-9.26755600
0.33696000,-9.26755600
0.33728000,-9.26755600
0.33760000,-9.26755600
0.33792000,-9.35666900
0.33824000,-9.26755600
0.33856000,-9.35666900
0.33888000,-9.26755600
0.33920000,-9.35666900
0.33952000,-9.26755600
0.33984000,-9.26755600
0.34016000,-9.26755600
0.34048000,-9.26755600
0.34080000,-9.35666900
0.34112000,-9.26755600
0.34144000,-9.26755600
0.34176000,-9.35666900
0.34208000,-9.26755600
0.34240000,-9.26755600
0.34272000,-9.26755600
0.34304000,-9.26755600
0.34336000,-9.26755600
0.34368000,-9.26755600
0.34400000,-9.26755600
0.34432000,-9.26755600
0.34464000,-9.26755600
0.34496000,-9.26755600
0.34528000,-9.26755600
0.34560000,-9.35666900
0.34592000,-9.35666900
0.34624000,-9.26755600
0.34656000,-9.26755600
0.34688000,-9.26755600
0.34720000,-9.35666900
0.34752000,-9.26755600
0.34784000,-9.26755600
0.34816000,-9.26755600
0.34848000,-9.26755600
0.34880000,-9.26755600
0.34912000,-9.35666900
0.34944000,-9.26755600
0.34976000,-9.26755600
0.35008000,-9.26755600
0.35040000,-9.35666900
0.35072000,-9.26755600
0.35104000,-9.26755600
0.35136000,-9.35666900
0.35168000,-9.26755600
0.35200000,-9.26755600
0.35232000,-9.26755600
0.35264000,-9.26755600
0.35296000,-9.26755600
0.35328000,-9.26755600
0.35360000,-9.26755600
0.35392000,-9.35666900
0.35424000,-9.26755600
0.35456000,-9.26755600
0.35488000,-9.26755600
0.35520000,-9.26755600
0.35552000,-9.35666900
0.35584000,-9.26755600
0.35616000,-9.26755600
0.35648000,-9.26755600
0.35680000,-9.26755600
0.35712000,-9.26755600
0.35744000,-9.26755600
0.35776000,-9.35666900
0.35808000,-9.26755600
0.35840000,-9.26755600
0.35872000,-9.26755600
0.35904000,-9.26755600
0.35936000,-9.26755600
0.35968000,-9.26755600
0.36000000,-9.26755600
0.36032000,-9.26755600
0.36064000,-9.26755600
0.36096000,-9.26755600
0.36128000,-9.26755600
0.36160000,-9.26755600
0.36192000,-9.26755600
0.36224000,-9.26755600
0.36256000,-9.26755600
0.36288000,-9.26755600
0.36320000,-9.26755600
0.36352000,-9.26755600
0.36384000,-9.26755600
0.36416000,-9.26755600
0.36448000,-9.26755600
0.36480000,-9.26755600
0.36512000,-9.26755600
0.36544000,-9.26755600
0.36576000,-9.26755600
0.36608000,-9.26755600
0.36640000,-9.26755600
0.36672000,-9.26755600
0.36704000,-9.35666900
0.36736000,-9.35666900
0.36768000,-9.26755600
0.36800000,-9.26755600
0.36832000,-9.26755600
0.36864000,-9.26755600
0.36896000,-9.35666900
0.36928000,-9.26755600
0.36960000,-9.35666900
0.36992000,-9.26755600
0.37024000,-9.26755600
0.37056000,-9.26755600
0.37088000,-9.26755600
0.37120000,-9.26755600
0.37152000,-9.35666900
0.37184000,-9.35666900
0.37216000,-9.26755600
0.37248000,-9.26755600
0.37280000,-9.26755600
0.37312000,-9.35666900
0.37344000,-9.26755600
0.37376000,-9.26755600
0.37408000,-9.26755600
0.37440000,-9.35666900
0.37472000,-9.35666900
0.37504000,-9.26755600
0.37536000,-9.26755600
0.37568000,-9.26755600
0.37600000,-9.26755600
0.37632000,-9.26755600
0.37664000,-9.35666900
0.37696000,-9.26755600
0.37728000,-9.26755600
0.37760000,-9.26755600
0.37792000,-9.26755600
0.37824000,-9.26755600
0.37856000,-9.26755600
0.37888000,-9.26755600
0.37920000,-9.26755600
0.37952000,-9.26755600
0.37984000,-9.26755600
0.38016000,-9.26755600
0.38048000,-9.26755600
0.38080000,-9.26755600
0.38112000,-9.26755600
0.38144000,-9.35666900
0.38176000,-9.26755600
0.38208000,-9.26755600
0.38240000,-9.26755600
0.38272000,-9.26755600
0.38304000,-9.35666900
0.38336000,-9.26755600
0.38368000,-9.26755600
0.38400000,-9.26755600
0.38432000,-9.26755600
0.38464000,-9.26755600
0.38496000,-9.35666900
0.38528000,-9.26755600
0.38560000,-9.26755600
0.38592000,-9.26755600
0.38624000,-9.26755600
0.38656000,-9.26755600
0.38688000,-9.26755600
0.38720000,-9.26755600
0.38752000,-9.26755600
0.38784000,-9.26755600
0.38816000,-9.26755600
0.38848000,-9.26755600
0.38880000,-9.26755600
0.38912000,-9.26755600
0.38944000,-9.26755600
0.38976000,-9.26755600
0.39008000,-9.26755600
0.39040000,-9.26755600
0.39072000,-9.26755600
0.39104000,-9.26755600
0.39136000,-9.26755600
0.39168000,-9.26755600
0.39200000,-9.26755600
0.39232000,-9.26755600
0.39264000,-9.26755600
0.39296000,-9.35666900
0.39328000,-9.26755600
0.39360000,-9.26755600
0.39392000,-9.26755600
0.39424000,-9.26755600
0.39456000,-9.26755600
0.39488000,-9.26755600
0.39520000,-9.35666900
0.39552000,-9.26755600
0.39584000,-9.35666900
0.39616000,-9.26755600
0.39648000,-9.26755600
0.39680000,-9.26755600
0.39712000,-9.35666900
0.39744000,-9.26755600
0.39776000,-9.26755600
0.39808000,-9.26755600
0.39840000,-9.26755600
0.39872000,-9.35666900
0.39904000,-9.26755600
0.39936000,-9.26755600
0.39968000,-9.26755600
0.40000000,-9.26755600
0.40032000,-9.26755600
0.40064000,-9.26755600
0.40096000,-9.26755600
0.40128000,-9.26755600
0.40160000,-9.26755600
0.40192000,-9.26755600
0.40224000,-9.26755600
0.40256000,-9.26755600
0.40288000,-9.26755600
0.40320000,-9.35666900
0.40352000,-9.26755600
0.40384000,-9.26755600
0.40416000,-9.26755600
0.40448000,-9.26755600
0.40480000,-9.26755600
0.40512000,-9.26755600
0.40544000,-9.26755600
0.40576000,-9.26755600
0.40608000,-9.26755600
0.40640000,-9.26755600
0.40672000,-9.26755600
0.40704000,-9.26755600
0.40736000,-9.26755600
0.40768000,-9.26755600
0.40800000,-9.26755600
0.40832000,-9.26755600
0.40864000,-9.26755600
0.40896000,-9.26755600
0.40928000,-9.26755600
0.40960000,-9.26755600
0.40992000,-9.26755600
0.41024000,-9.26755600
0.41056000,-9.26755600
0.41088000,-9.26755600
0.41120000,-9.26755600
0.41152000,-9.35666900
0.41184000,-9.35666900
0.41216000,-9.26755600
0.41248000,-9.26755600
0.41280000,-9.26755600
0.41312000,-9.35666900
0.41344000,-9.26755600
0.41376000,-9.26755600
0.41408000,-9.26755600
0.41440000,-9.26755600
0.41472000,-9.26755600
0.41504000,-9.26755600
0.41536000,-9.35666900
0.41568000,-9.26755600
0.41600000,-9.35666900
0.41632000,-9.26755600
0.41664000,-9.26755600
0.41696000,-9.35666900
0.41728000,-9.26755600
0.41760000,-9.26755600
0.41792000,-9.26755600
0.41824000,-9.26755600
0.41856000,-9.26755600
0.41888000,-9.35666900
0.41920000,-9.26755600
0.41952000,-9.26755600
0.41984000,-9.26755600
0.42016000,-9.26755600
0.42048000,-9.26755600
0.42080000,-9.26755600
0.42112000,-9.26755600
0.42144000,-9.35666900
0.42176000,-9.35666900
0.42208000,-9.26755600
0.42240000,-9.26755600
0.42272000,-9.26755600
0.42304000,-9.26755600
0.42336000,-9.26755600
0.42368000,-9.26755600
0.42400000,-9.26755600
0.42432000,-9.26755600
0.42464000,-9.35666900
0.42496000,-9.26755600
0.42528000,-9.26755600
0.42560000,-9.26755600
0.42592000,-9.26755600
0.42624000,-9.26755600
0.42656000,-9.26755600
0.42688000,-9.26755600
0.42720000,-9.26755600
0.42752000,-9.26755600
0.42784000,-9.35666900
0.42816000,-9.26755600
0.42848000,-9.26755600
0.42880000,-9.26755600
0.42912000,-9.26755600
0.42944000,-9.26755600
0.42976000,-9.26755600
0.43008000,-9.26755600
0.43040000,-9.26755600
0.43072000,-9.35666900
0.43104000,-9.26755600
0.43136000,-9.26755600
0.43168000,-9.26755600
0.43200000,-9.26755600
0.43232000,-9.26755600
0.43264000,-9.26755600
0.43296000,-9.26755600
0.43328000,-9.26755600
0.43360000,-9.26755600
0.43392000,-9.26755600
0.43424000,-9.26755600
0.43456000,-9.35666900
0.43488000,-9.26755600
0.43520000,-9.26755600
0.43552000,-9.26755600
0.43584000,-9.26755600
0.43616000,-9.26755600
0.43648000,-9.26755600
0.43680000,-9.26755600
0.43712000,-9.26755600
0.43744000,-9.26755600
0.43776000,-9.26755600
0.43808000,-9.26755600
0.43840000,-9.26755600
0.43872000,-9.26755600
0.43904000,-9.26755600
0.43936000,-9.26755600
0.43968000,-9.26755600
0.44000000,-9.35666900
0.44032000,-9.26755600
0.44064000,-9.26755600
0.44096000,-9.26755600
0.44128000,-9.26755600
0.44160000,-9.26755600
0.44192000,-9.26755600
0.44224000,-9.26755600
0.44256000,-9.26755600
0.44288000,-9.26755600
0.44320000,-9.26755600
0.44352000,-9.35666900
0.44384000,-9.26755600
0.44416000,-9.26755600
0.44448000,-9.26755600
0.44480000,-9.26755600
0.44512000,-9.26755600
0.44544000,-9.26755600
0.44576000,-9.26755600
0.44608000,-9.26755600
0.44640000,-9.26755600
0.44672000,-9.26755600
0.44704000,-9.35666900
0.44736000,-9.26755600
0.44768000,-9.35666900
0.44800000,-9.26755600
0.44832000,-9.26755600
0.44864000,-9.26755600
0.44896000,-9.26755600
0.44928000,-9.26755600
0.44960000,-9.26755600
0.44992000,-9.26755600
0.45024000,-9.26755600
0.45056000,-9.26755600
0.45088000,-9.26755600
0.45120000,-9.26755600
0.45152000,-9.26755600
0.45184000,-9.26755600
0.45216000,-9.26755600
0.45248000,-9.26755600
0.45280000,-9.26755600
0.45312000,-9.26755600
0.45344000,-9.26755600
0.45376000,-9.26755600
0.45408000,-9.26755600
0.45440000,-9.35666900
0.45472000,-9.26755600
0.45504000,-9.26755600
0.45536000,-9.26755600
0.45568000,-9.26755600
0.45600000,-9.26755600
0.45632000,-9.26755600
0.45664000,-9.26755600
0.45696000,-9.26755600
0.45728000,-9.26755600
0.45760000,-9.26755600
0.45792000,-9.26755600
0.45824000,-9.26755600
0.45856000,-9.26755600
0.45888000,-9.26755600
0.45920000,-9.26755600
0.45952000,-9.26755600
0.45984000,-9.35666900
0.46016000,-9.26755600
0.46048000,-9.26755600
0.46080000,-9.26755600
0.46112000,-9.26755600
0.46144000,-9.26755600
0.46176000,-9.26755600
0.46208000,-9.26755600
0.46240000,-9.26755600
0.46272000,-9.35666900
0.46304000,-9.26755600
0.46336000,-9.26755600
0.46368000,-9.26755600
0.46400000,-9.26755600
0.46432000,-9.26755600
0.46464000,-9.35666900
0.46496000,-9.35666900
0.46528000,-9.35666900
0.46560000,-9.26755600
0.46592000,-9.26755600
0.46624000,-9.26755600
0.46656000,-9.26755600
0.46688000,-9.26755600
0.46720000,-9.26755600
0.46752000,-9.26755600
0.46784000,-9.26755600
0.46816000,-9.26755600
0.46848000,-9.35666900
0.46880000,-9.26755600
0.46912000,-9.26755600
0.46944000,-9.26755600
0.46976000,-9.26755600
0.47008000,-9.35666900
0.47040000,-9.26755600
0.47072000,-9.35666900
0.47104000,-9.35666900
0.47136000,-9.26755600
0.47168000,-9.26755600
0.47200000,-9.26755600
0.47232000,-9.35666900
0.47264000,-9.26755600
0.47296000,-9.26755600
0.47328000,-9.35666900
0.47360000,-9.35666900
0.47392000,-9.26755600
0.47424000,-9.26755600
0.47456000,-9.26755600
0.47488000,-9.26755600
0.47520000,-9.26755600
0.47552000,-9.26755600
0.47584000,-9.26755600
0.47616000,-9.26755600
0.47648000,-9.26755600
0.47680000,-9.26755600
0.47712000,-9.26755600
0.47744000,-9.26755600
0.47776000,-9.26755600
0.47808000,-9.26755600
0.47840000,-9.26755600
0.47872000,-9.26755600
0.47904000,-9.26755600
0.47936000,-9.26755600
0.47968000,-9.26755600
0.48000000,-9.35666900
0.48032000,-9.26755600
0.48064000,-9.26755600
0.48096000,-9.26755600
0.48128000,-9.26755600
0.48160000,-9.35666900
0.48192000,-9.35666900
0.48224000,-9.26755600
0.48256000,-9.26755600
0.48288000,-9.35666900
0.48320000,-9.26755600
0.48352000,-9.26755600
0.48384000,-9.26755600
0.48416000,-9.26755600
0.48448000,-9.26755600
0.48480000,-9.26755600
0.48512000,-9.26755600
0.48544000,-9.26755600
0.48576000,-9.26755600
0.48608000,-9.26755600
0.48640000,-9.26755600
0.48672000,-9.26755600
0.48704000,-9.26755600
0.48736000,-9.26755600
0.48768000,-9.26755600
0.48800000,-9.35666900
0.48832000,-9.26755600
0.48864000,-9.26755600
0.48896000,-9.26755600
0.48928000,-9.26755600
0.48960000,-9.26755600
0.48992000,-9.26755600
0.49024000,-9.26755600
0.49056000,-9.26755600
0.49088000,-9.26755600
0.49120000,-9.26755600
0.49152000,-9.26755600
0.49184000,-9.26755600
0.49216000,-9.26755600
0.49248000,-9.26755600
0.49280000,-9.35666900
0.49312000,-9.26755600
0.49344000,-9.35666900
0.49376000,-9.35666900
0.49408000,-9.26755600
0.49440000,-9.26755600
0.49472000,-9.26755600
0.49504000,-9.26755600
0.49536000,-9.26755600
0.49568000,-9.26755600
0.49600000,-9.26755600
0.49632000,-9.26755600
0.49664000,-9.26755600
0.49696000,-9.26755600
0.49728000,-9.26755600
0.49760000,-9.26755600
0.49792000,-9.35666900
0.49824000,-9.26755600
0.49856000,-9.26755600
0.49888000,-9.26755600
0.49920000,-9.26755600
0.49952000,-9.26755600
0.49984000,-9.26755600
0.50016000,-9.26755600
0.50048000,-9.35666900
0.50080000,-9.26755600
0.50112000,-9.26755600
0.50144000,-9.26755600
0.50176000,-9.26755600
0.50208000,-9.26755600
0.50240000,-9.26755600
0.50272000,-9.26755600
0.50304000,-9.26755600
0.50336000,-9.26755600
0.50368000,-9.26755600
0.50400000,-9.26755600
0.50432000,-9.26755600
0.50464000,-9.26755600
0.50496000,-9.26755600
0.50528000,-9.26755600
0.50560000,-9.26755600
0.50592000,-9.26755600
0.50624000,-9.26755600
0.50656000,-9.26755600
0.50688000,-9.26755600
0.50720000,-9.26755600
0.50752000,-9.26755600
0.50784000,-9.26755600
0.50816000,-9.35666900
0.50848000,-9.26755600
0.50880000,-9.26755600
0.50912000,-9.26755600
0.50944000,-9.35666900
0.50976000,-9.26755600
0.51008000,-9.26755600
0.51040000,-9.26755600
0.51072000,-9.26755600
0.51104000,-9.26755600
0.51136000,-9.26755600
0.51168000,-9.26755600
0.51200000,-9.26755600
0.51232000,-9.26755600
0.51264000,-9.26755600
0.51296000,-9.26755600
0.51328000,-9.35666900
0.51360000,-9.26755600
0.51392000,-9.26755600
0.51424000,-9.26755600
0.51456000,-9.26755600
0.51488000,-9.26755600
0.51520000,-9.26755600
0.51552000,-9.26755600
0.51584000,-9.35666900
0.51616000,-9.26755600
0.51648000,-9.26755600
0.51680000,-9.26755600
0.51712000,-9.26755600
0.51744000,-9.35666900
0.51776000,-9.35666900
0.51808000,-9.26755600
0.51840000,-9.35666900
0.51872000,-9.26755600
0.51904000,-9.35666900
0.51936000,-9.35666900
0.51968000,-9.26755600
0.52000000,-9.26755600
0.52032000,-9.26755600
0.52064000,-9.26755600
0.52096000,-9.26755600
0.52128000,-9.26755600
0.52160000,-9.26755600
0.52192000,-9.26755600
0.52224000,-9.26755600
0.52256000,-9.26755600
0.52288000,-9.26755600
0.52320000,-9.26755600
0.52352000,-9.26755600
0.52384000,-9.35666900
0.52416000,-9.26755600
0.52448000,-9.26755600
0.52480000,-9.26755600
0.52512000,-9.26755600
0.52544000,-9.26755600
0.52576000,-9.26755600
0.52608000,-9.35666900
0.52640000,-9.26755600
0.52672000,-9.35666900
0.52704000,-9.26755600
0.52736000,-9.26755600
0.52768000,-9.35666900
0.52800000,-9.26755600
0.52832000,-9.26755600
0.52864000,-9.26755600
0.52896000,-9.26755600
0.52928000,-9.26755600
0.52960000,-9.26755600
0.52992000,-9.26755600
0.53024000,-9.26755600
0.53056000,-9.26755600
0.53088000,-9.26755600
0.53120000,-9.35666900
0.53152000,-9.26755600
0.53184000,-9.26755600
0.53216000,-9.26755600
0.53248000,-9.26755600
0.53280000,-9.26755600
0.53312000,-9.26755600
0.53344000,-9.26755600
0.53376000,-9.26755600
0.53408000,-9.35666900
0.53440000,-9.26755600
0.53472000,-9.26755600
0.53504000,-9.26755600
0.53536000,-9.26755600
0.53568000,-9.26755600
0.53600000,-9.26755600
0.53632000,-9.26755600
0.53664000,-9.26755600
0.53696000,-9.26755600
0.53728000,-9.35666900
0.53760000,-9.26755600
0.53792000,-9.35666900
0.53824000,-9.26755600
0.53856000,-9.26755600
0.53888000,-9.26755600
0.53920000,-9.26755600
0.53952000,-9.26755600
0.53984000,-9.35666900
0.54016000,-9.26755600
0.54048000,-9.26755600
0.54080000,-9.26755600
0.54112000,-9.26755600
0.54144000,-9.26755600
0.54176000,-9.26755600
0.54208000,-9.26755600
0.54240000,-9.26755600
0.54272000,-9.26755600
0.54304000,-9.26755600
0.54336000,-9.26755600
0.54368000,-9.26755600
0.54400000,-9.26755600
0.54432000,-9.35666900
0.54464000,-9.26755600
0.54496000,-9.26755600
0.54528000,-9.26755600
0.54560000,-9.26755600
0.54592000,-9.26755600
0.54624000,-9.26755600
0.54656000,-9.26755600
0.54688000,-9.26755600
0.54720000,-9.26755600
0.54752000,-9.26755600
0.54784000,-9.26755600
0.54816000,-9.26755600
0.54848000,-9.26755600
0.54880000,-9.26755600
0.54912000,-9.26755600
0.54944000,-9.35666900
0.54976000,-9.26755600
0.55008000,-9.26755600
0.55040000,-9.26755600
0.55072000,-9.35666900
0.55104000,-9.26755600
0.55136000,-9.35666900
0.55168000,-9.26755600
0.55200000,-9.26755600
0.55232000,-9.26755600
0.55264000,-9.26755600
0.55296000,-9.35666900
0.55328000,-9.26755600
0.55360000,-9.26755600
0.55392000,-9.35666900
0.55424000,-9.26755600
0.55456000,-9.26755600
0.55488000,-9.26755600
0.55520000,-9.26755600
0.55552000,-9.26755600
0.55584000,-9.26755600
0.55616000,-9.26755600
0.55648000,-9.26755600
0.55680000,-9.26755600
0.55712000,-9.26755600
0.55744000,-9.35666900
0.55776000,-9.26755600
0.55808000,-9.26755600
0.55840000,-9.26755600
0.55872000,-9.26755600
0.55904000,-9.26755600
0.55936000,-9.26755600
0.55968000,-9.26755600
0.56000000,-9.26755600
0.56032000,-9.35666900
0.56064000,-9.26755600
0.56096000,-9.26755600
0.56128000,-9.26755600
0.56160000,-9.26755600
0.56192000,-9.26755600
0.56224000,-9.26755600
0.56256000,-9.26755600
0.56288000,-9.26755600
0.56320000,-9.26755600
0.56352000,-9.26755600
0.56384000,-9.35666900
0.56416000,-9.35666900
0.56448000,-9.35666900
0.56480000,-9.26755600
0.56512000,-9.26755600
0.56544000,-9.26755600
0.56576000,-9.26755600
0.56608000,-9.35666900
0.56640000,-9.35666900
0.56672000,-9.35666900
0.56704000,-9.26755600
0.56736000,-9.26755600
0.56768000,-9.26755600
0.56800000,-9.26755600
0.56832000,-9.26755600
0.56864000,-9.26755600
0.56896000,-9.26755600
0.56928000,-9.26755600
0.56960000,-9.26755600
0.56992000,-9.26755600
0.57024000,-9.26755600
0.57056000,-9.26755600
0.57088000,-9.26755600
0.57120000,-9.26755600
0.57152000,-9.26755600
0.57184000,-9.26755600
0.57216000,-9.26755600
0.57248000,-9.35666900
0.57280000,-9.35666900
0.57312000,-9.35666900
0.57344000,-9.26755600
0.57376000,-9.35666900
0.57408000,-9.26755600
0.57440000,-9.26755600
0.57472000,-9.26755600
0.57504000,-9.35666900
0.57536000,-9.26755600
0.57568000,-9.26755600
0.57600000,-9.26755600
0.57632000,-9.26755600
0.57664000,-9.26755600
0.57696000,-9.26755600
0.57728000,-9.26755600
0.57760000,-9.26755600
0.57792000,-9.35666900
0.57824000,-9.26755600
0.57856000,-9.26755600
0.57888000,-9.26755600
0.57920000,-9.26755600
0.57952000,-9.26755600
0.57984000,-9.26755600
0.58016000,-9.26755600
0.58048000,-9.26755600
0.58080000,-9.26755600
0.58112000,-9.26755600
0.58144000,-9.26755600
0.58176000,-9.26755600
0.58208000,-9.26755600
0.58240000,-9.26755600
0.58272000,-9.26755600
0.58304000,-9.26755600
0.58336000,-9.26755600
0.58368000,-9.26755600
0.58400000,-9.26755600
0.58432000,-9.35666900
0.58464000,-9.26755600
0.58496000,-9.26755600
0.58528000,-9.26755600
0.58560000,-9.26755600
0.58592000,-9.26755600
0.58624000,-9.35666900
0.58656000,-9.26755600
0.58688000,-9.26755600
0.58720000,-9.26755600
0.58752000,-9.26755600
0.58784000,-9.26755600
0.58816000,-9.26755600
0.58848000,-9.26755600
0.58880000,-9.26755600
0.58912000,-9.26755600
0.58944000,-9.26755600
0.58976000,-9.26755600
0.59008000,-9.26755600
0.59040000,-9.35666900
0.59072000,-9.26755600
0.59104000,-9.26755600
0.59136000,-9.26755600
0.59168000,-9.26755600
0.59200000,-9.26755600
0.59232000,-9.26755600
0.59264000,-9.35666900
0.59296000,-9.26755600
0.59328000,-9.35666900
0.59360000,-9.35666900
0.59392000,-9.26755600
0.59424000,-9.26755600
0.59456000,-9.26755600
0.59488000,-9.26755600
0.59520000,-9.26755600
0.59552000,-9.26755600
0.59584000,-9.26755600
0.59616000,-9.26755600
0.59648000,-9.26755600
0.59680000,-9.26755600
0.59712000,-9.26755600
0.59744000,-9.35666900
0.59776000,-9.26755600
0.59808000,-9.26755600
0.59840000,-9.26755600
0.59872000,-9.26755600
0.59904000,-9.26755600
0.59936000,-9.26755600
0.59968000,-9.26755600
0.60000000,-9.26755600
0.60032000,-9.26755600
0.60064000,-9.26755600
0.60096000,-9.26755600
0.60128000,-9.26755600
0.60160000,-9.26755600
0.60192000,-9.35666900
0.60224000,-9.26755600
0.60256000,-9.35666900
0.60288000,-9.26755600
0.60320000,-9.26755600
0.60352000,-9.26755600
0.60384000,-9.26755600
0.60416000,-9.26755600
0.60448000,-9.26755600
0.60480000,-9.26755600
0.60512000,-9.26755600
0.60544000,-9.26755600
0.60576000,-9.35666900
0.60608000,-9.26755600
0.60640000,-9.26755600
0.60672000,-9.26755600
0.60704000,-9.26755600
0.60736000,-9.35666900
0.60768000,-9.26755600
0.60800000,-9.26755600
0.60832000,-9.26755600
0.60864000,-9.35666900
0.60896000,-9.26755600
0.60928000,-9.26755600
0.60960000,-9.26755600
0.60992000,-9.26755600
0.61024000,-9.35666900
0.61056000,-9.26755600
0.61088000,-9.26755600
0.61120000,-9.35666900
0.61152000,-9.26755600
0.61184000,-9.26755600
0.61216000,-9.26755600
0.61248000,-9.35666900
0.61280000,-9.26755600
0.61312000,-9.26755600
0.61344000,-9.26755600
0.61376000,-9.35666900
0.61408000,-9.35666900
0.61440000,-9.26755600
0.61472000,-9.35666900
0.61504000,-9.35666900
0.61536000,-9.26755600
0.61568000,-9.26755600
0.61600000,-9.35666900
0.61632000,-9.26755600
0.61664000,-9.26755600
0.61696000,-9.26755600
0.61728000,-9.26755600
0.61760000,-9.35666900
0.61792000,-9.26755600
0.61824000,-9.26755600
0.61856000,-9.26755600
0.61888000,-9.26755600
0.61920000,-9.35666900
0.61952000,-9.26755600
0.61984000,-9.26755600
0.62016000,-9.26755600
0.62048000,-9.26755600
0.62080000,-9.26755600
0.62112000,-9.35666900
0.62144000,-9.26755600
0.62176000,-9.35666900
0.62208000,-9.26755600
0.62240000,-9.26755600
0.62272000,-9.26755600
0.62304000,-9.35666900
0.62336000,-9.26755600
0.62368000,-9.26755600
0.62400000,-9.26755600
0.62432000,-9.35666900
0.62464000,-9.26755600
0.62496000,-9.26755600
0.62528000,-9.26755600
0.62560000,-9.26755600
0.62592000,-9.26755600
0.62624000,-9.35666900
0.62656000,-9.26755600
0.62688000,-9.26755600
0.62720000,-9.26755600
0.62752000,-9.26755600
0.62784000,-9.26755600
0.62816000,-9.26755600
0.62848000,-9.35666900
0.62880000,-9.26755600
0.62912000,-9.26755600
0.62944000,-9.26755600
0.62976000,-9.26755600
0.63008000,-9.35666900
0.63040000,-9.26755600
0.63072000,-9.26755600
0.63104000,-9.35666900
0.63136000,-9.26755600
0.63168000,-9.35666900
0.63200000,-9.35666900
0.63232000,-9.26755600
0.63264000,-9.35666900
0.63296000,-9.35666900
0.63328000,-9.35666900
0.63360000,-9.26755600
0.63392000,-9.26755600
0.63424000,-9.26755600
0.63456000,-9.26755600
0.63488000,-9.35666900
0.63520000,-9.26755600
0.63552000,-9.26755600
0.63584000,-9.26755600
0.63616000,-9.26755600
0.63648000,-9.26755600
0.63680000,-9.35666900
0.63712000,-9.26755600
0.63744000,-9.26755600
0.63776000,-9.26755600
0.63808000,-9.26755600
0.63840000,-9.35666900
0.63872000,-9.26755600
0.63904000,-9.26755600
0.63936000,-9.26755600
0.63968000,-9.26755600
0.64000000,-9.26755600
0.64032000,-9.26755600
0.64064000,-9.26755600
0.64096000,-9.26755600
0.64128000,-9.26755600
0.64160000,-9.26755600
0.64192000,-9.26755600
0.64224000,-9.26755600
0.64256000,-9.26755600
0.64288000,-9.35666900
0.64320000,-9.26755600
0.64352000,-9.26755600
0.64384000,-9.35666900
0.64416000,-9.26755600
0.64448000,-9.26755600
0.64480000,-9.35666900
0.64512000,-9.26755600
0.64544000,-9.26755600
0.64576000,-9.26755600
0.64608000,-9.26755600
0.64640000,-9.26755600
0.64672000,-9.26755600
0.64704000,-9.26755600
0.64736000,-9.26755600
0.64768000,-9.26755600
0.64800000,-9.26755600
0.64832000,-9.26755600
0.64864000,-9.26755600
0.64896000,-9.26755600
0.64928000,-9.26755600
0.64960000,-9.26755600
0.64992000,-9.26755600
0.65024000,-9.26755600
0.65056000,-9.26755600
0.65088000,-9.26755600
0.65120000,-9.26755600
0.65152000,-9.26755600
0.65184000,-9.26755600
0.65216000,-9.26755600
0.65248000,-9.26755600
0.65280000,-9.26755600
0.65312000,-9.26755600
0.65344000,-9.26755600
0.65376000,-9.26755600
0.65408000,-9.35666900
0.65440000,-9.35666900
0.65472000,-9.26755600
0.65504000,-9.26755600
0.65536000,-9.35666900
0.65568000,-9.26755600
0.65600000,-9.26755600
0.65632000,-9.26755600
0.65664000,-9.26755600
0.65696000,-9.26755600
0.65728000,-9.26755600
0.65760000,-9.35666900
0.65792000,-9.35666900
0.65824000,-9.35666900
0.65856000,-9.26755600
0.65888000,-9.26755600
0.65920000,-9.26755600
0.65952000,-9.35666900
0.65984000,-9.26755600
0.66016000,-9.26755600
0.66048000,-9.26755600
0.66080000,-9.26755600
0.66112000,-9.35666900
0.66144000,-9.26755600
0.66176000,-9.26755600
0.66208000,-9.26755600
0.66240000,-9.26755600
0.66272000,-9.26755600
0.66304000,-9.26755600
0.66336000,-9.35666900
0.66368000,-9.26755600
0.66400000,-9.26755600
0.66432000,-9.26755600
0.66464000,-9.26755600
0.66496000,-9.35666900
0.66528000,-9.35666900
0.66560000,-9.26755600
0.66592000,-9.26755600
0.66624000,-9.26755600
0.66656000,-9.26755600
0.66688000,-9.26755600
0.66720000,-9.26755600
0.66752000,-9.26755600
0.66784000,-9.35666900
0.66816000,-9.26755600
0.66848000,-9.26755600
0.66880000,-9.35666900
0.66912000,-9.26755600
0.66944000,-9.26755600
0.66976000,-9.26755600
0.67008000,-9.35666900
0.67040000,-9.26755600
0.67072000,-9.35666900
0.67104000,-9.26755600
0.67136000,-9.26755600
0.67168000,-9.26755600
0.67200000,-9.35666900
0.67232000,-9.26755600
0.67264000,-9.26755600
0.67296000,-9.26755600
0.67328000,-9.35666900
0.67360000,-9.26755600
0.67392000,-9.26755600
0.67424000,-9.35666900
0.67456000,-9.26755600
0.67488000,-9.26755600
0.67520000,-9.26755600
0.67552000,-9.26755600
0.67584000,-9.26755600
0.67616000,-9.26755600
0.67648000,-9.26755600
0.67680000,-9.35666900
0.67712000,-9.26755600
0.67744000,-9.26755600
0.67776000,-9.26755600
0.67808000,-9.26755600
0.67840000,-9.26755600
0.67872000,-9.26755600
0.67904000,-9.26755600
0.67936000,-9.26755600
0.67968000,-9.35666900
0.68000000,-9.26755600
0.68032000,-9.35666900
0.68064000,-9.26755600
0.68096000,-9.26755600
0.68128000,-9.26755600
0.68160000,-9.26755600
0.68192000,-9.26755600
0.68224000,-9.35666900
0.68256000,-9.26755600
0.68288000,-9.35666900
0.68320000,-9.35666900
0.68352000,-9.26755600
0.68384000,-9.26755600
0.68416000,-9.35666900
0.68448000,-9.26755600
0.68480000,-9.26755600
0.68512000,-9.26755600
0.68544000,-9.26755600
0.68576000,-9.26755600
0.68608000,-9.35666900
0.68640000,-9.26755600
0.68672000,-9.26755600
0.68704000,-9.26755600
0.68736000,-9.26755600
0.68768000,-9.26755600
0.68800000,-9.26755600
0.68832000,-9.26755600
0.68864000,-9.26755600
0.68896000,-9.26755600
0.68928000,-9.26755600
0.68960000,-9.26755600
0.68992000,-9.35666900
0.69024000,-9.26755600
0.69056000,-9.26755600
0.69088000,-9.26755600
0.69120000,-9.26755600
0.69152000,-9.26755600
0.69184000,-9.26755600
0.69216000,-9.26755600
0.69248000,-9.26755600
0.69280000,-9.26755600
0.69312000,-9.35666900
0.69344000,-9.35666900
0.69376000,-9.35666900
0.69408000,-9.35666900
0.69440000,-9.35666900
0.69472000,-9.35666900
0.69504000,-9.26755600
0.69536000,-9.26755600
0.69568000,-9.26755600
0.69600000,-9.26755600
0.69632000,-9.26755600
0.69664000,-9.26755600
0.69696000,-9.26755600
0.69728000,-9.26755600
0.69760000,-9.26755600
0.69792000,-9.26755600
0.69824000,-9.26755600
0.69856000,-9.26755600
0.69888000,-9.26755600
0.69920000,-9.26755600
0.69952000,-9.26755600
0.69984000,-9.26755600
0.70016000,-9.26755600
0.70048000,-9.26755600
0.70080000,-9.26755600
0.70112000,-9.26755600
0.70144000,-9.26755600
0.70176000,-9.26755600
0.70208000,-9.35666900
0.70240000,-9.26755600
0.70272000,-9.26755600
0.70304000,-9.26755600
0.70336000,-9.26755600
0.70368000,-9.26755600
0.70400000,-9.26755600
0.70432000,-9.26755600
0.70464000,-9.26755600
0.70496000,-9.26755600
0.70528000,-9.26755600
0.70560000,-9.26755600
0.70592000,-9.26755600
0.70624000,-9.26755600
0.70656000,-9.26755600
0.70688000,-9.26755600
0.70720000,-9.26755600
0.70752000,-9.26755600
0.70784000,-9.26755600
0.70816000,-9.26755600
0.70848000,-9.26755600
0.70880000,-9.26755600
0.70912000,-9.26755600
0.70944000,-9.26755600
0.70976000,-9.35666900
0.71008000,-9.26755600
0.71040000,-9.26755600
0.71072000,-9.26755600
0.71104000,-9.26755600
0.71136000,-9.26755600
0.71168000,-9.26755600
0.71200000,-9.26755600
0.71232000,-9.26755600
0.71264000,-9.26755600
0.71296000,-9.26755600
0.71328000,-9.26755600
0.71360000,-9.35666900
0.71392000,-9.26755600
0.71424000,-9.26755600
0.71456000,-9.26755600
0.71488000,-9.26755600
0.71520000,-9.26755600
0.71552000,-9.26755600
0.71584000,-9.26755600
0.71616000,-9.35666900
0.71648000,-9.26755600
0.71680000,-9.26755600
0.71712000,-9.26755600
0.71744000,-9.35666900
0.71776000,-9.26755600
0.71808000,-9.26755600
0.71840000,-9.26755600
0.71872000,-9.26755600
0.71904000,-9.26755600
0.71936000,-9.26755600
0.71968000,-9.26755600
0.72000000,-9.26755600
0.72032000,-9.26755600
0.72064000,-9.26755600
0.72096000,-9.26755600
0.72128000,-9.26755600
0.72160000,-9.26755600
0.72192000,-9.26755600
0.72224000,-9.26755600
0.72256000,-9.26755600
0.72288000,-9.26755600
0.72320000,-9.26755600
0.72352000,-9.26755600
0.72384000,-9.26755600
0.72416000,-9.26755600
0.72448000,-9.26755600
0.72480000,-9.26755600
0.72512000,-9.26755600
0.72544000,-9.35666900
0.72576000,-9.35666900
0.72608000,-9.26755600
0.72640000,-9.35666900
0.72672000,-9.26755600
0.72704000,-9.26755600
0.72736000,-9.26755600
0.72768000,-9.35666900
0.72800000,-9.26755600
0.72832000,-9.26755600
0.72864000,-9.26755600
0.72896000,-9.26755600
0.72928000,-9.26755600
0.72960000,-9.26755600
0.72992000,-9.26755600
0.73024000,-9.26755600
0.73056000,-9.26755600
0.73088000,-9.26755600
0.73120000,-9.26755600
0.73152000,-9.26755600
0.73184000,-9.26755600
0.73216000,-9.26755600
0.73248000,-9.35666900
0.73280000,-9.26755600
0.73312000,-9.26755600
0.73344000,-9.26755600
0.73376000,-9.26755600
0.73408000,-9.26755600
0.73440000,-9.35666900
0.73472000,-9.35666900
0.73504000,-9.26755600
0.73536000,-9.26755600
0.73568000,-9.35666900
0.73600000,-9.26755600
0.73632000,-9.26755600
0.73664000,-9.26755600
0.73696000,-9.35666900
0.73728000,-9.26755600
0.73760000,-9.26755600
0.73792000,-9.26755600
0.73824000,-9.26755600
0.73856000,-9.35666900
0.73888000,-9.26755600
0.73920000,-9.26755600
0.73952000,-9.26755600
0.73984000,-9.26755600
0.74016000,-9.26755600
0.74048000,-9.26755600
0.74080000,-9.35666900
0.74112000,-9.35666900
0.74144000,-9.35666900
0.74176000,-9.26755600
0.74208000,-9.26755600
0.74240000,-9.26755600
0.74272000,-9.26755600
0.74304000,-9.26755600
0.74336000,-9.26755600
0.74368000,-9.26755600
0.74400000,-9.26755600
0.74432000,-9.26755600
0.74464000,-9.26755600
0.74496000,-9.26755600
0.74528000,-9.26755600
0.74560000,-9.26755600
0.74592000,-9.35666900
0.74624000,-9.26755600
0.74656000,-9.26755600
0.74688000,-9.26755600
0.74720000,-9.26755600
0.74752000,-9.26755600
0.74784000,-9.26755600
0.74816000,-9.26755600
0.74848000,-9.26755600
0.74880000,-9.26755600
0.74912000,-9.26755600
0.74944000,-9.26755600
0.74976000,-9.26755600
0.75008000,-9.26755600
0.75040000,-9.26755600
0.75072000,-9.26755600
0.75104000,-9.26755600
0.75136000,-9.26755600
0.75168000,-9.35666900
0.75200000,-9.26755600
0.75232000,-9.26755600
0.75264000,-9.35666900
0.75296000,-9.26755600
0.75328000,-9.26755600
0.75360000,-9.35666900
0.75392000,-9.35666900
0.75424000,-9.26755600
0.75456000,-9.26755600
0.75488000,-9.26755600
0.75520000,-9.35666900
0.75552000,-9.26755600
0.75584000,-9.26755600
0.75616000,-9.26755600
0.75648000,-9.26755600
0.75680000,-9.26755600
0.75712000,-9.26755600
0.75744000,-9.35666900
0.75776000,-9.35666900
0.75808000,-9.26755600
0.75840000,-9.26755600
0.75872000,-9.26755600
0.75904000,-9.26755600
0.75936000,-9.26755600
0.75968000,-9.26755600
0.76000000,-9.26755600
0.76032000,-9.26755600
0.76064000,-9.35666900
0.76096000,-9.26755600
0.76128000,-9.26755600
0.76160000,-9.26755600
0.76192000,-9.35666900
0.76224000,-9.26755600
0.76256000,-9.26755600
0.76288000,-9.26755600
0.76320000,-9.26755600
0.76352000,-9.26755600
0.76384000,-9.26755600
0.76416000,-9.26755600
0.76448000,-9.26755600
0.76480000,-9.26755600
0.76512000,-9.26755600
0.76544000,-9.26755600
0.76576000,-9.35666900
0.76608000,-9.35666900
0.76640000,-9.26755600
0.76672000,-9.35666900
0.76704000,-9.26755600
0.76736000,-9.26755600
0.76768000,-9.26755600
0.76800000,-9.26755600
0.76832000,-9.26755600
0.76864000,-9.35666900
0.76896000,-9.26755600
0.76928000,-9.35666900
0.76960000,-9.26755600
0.76992000,-9.26755600
0.77024000,-9.26755600
0.77056000,-9.35666900
0.77088000,-9.26755600
0.77120000,-9.35666900
0.77152000,-9.35666900
0.77184000,-9.26755600
0.77216000,-9.26755600
0.77248000,-9.26755600
0.77280000,-9.26755600
0.77312000,-9.26755600
0.77344000,-9.26755600
0.77376000,-9.26755600
0.77408000,-9.26755600
0.77440000,-9.35666900
0.77472000,-9.26755600
0.77504000,-9.26755600
0.77536000,-9.26755600
0.77568000,-9.26755600
0.77600000,-9.26755600
0.77632000,-9.35666900
0.77664000,-9.26755600
0.77696000,-9.26755600
0.77728000,-9.26755600
0.77760000,-9.26755600
0.77792000,-9.26755600
0.77824000,-9.26755600
0.77856000,-9.26755600
0.77888000,-9.26755600
0.77920000,-9.26755600
0.77952000,-9.35666900
0.77984000,-9.26755600
0.78016000,-9.26755600
0.78048000,-9.26755600
0.78080000,-9.26755600
0.78112000,-9.26755600
0.78144000,-9.26755600
0.78176000,-9.26755600
0.78208000,-9.26755600
0.78240000,-9.35666900
0.78272000,-9.26755600
0.78304000,-9.35666900
0.78336000,-9.26755600
0.78368000,-9.26755600
0.78400000,-9.26755600
0.78432000,-9.26755600
0.78464000,-9.26755600
0.78496000,-9.26755600
0.78528000,-9.26755600
0.78560000,-9.26755600
0.78592000,-9.26755600
0.78624000,-9.26755600
0.78656000,-9.26755600
0.78688000,-9.26755600
0.78720000,-9.26755600
0.78752000,-9.26755600
0.78784000,-9.26755600
0.78816000,-9.26755600
0.78848000,-9.26755600
0.78880000,-9.26755600
0.78912000,-9.35666900
0.78944000,-9.26755600
0.78976000,-9.26755600
0.79008000,-9.26755600
0.79040000,-9.26755600
0.79072000,-9.26755600
0.79104000,-9.26755600
0.79136000,-9.26755600
0.79168000,-9.26755600
0.79200000,-9.26755600
0.79232000,-9.26755600
0.79264000,-9.35666900
0.79296000,-9.26755600
0.79328000,-9.26755600
0.79360000,-9.26755600
0.79392000,-9.26755600
0.79424000,-9.26755600
0.79456000,-9.35666900
0.79488000,-9.35666900
0.79520000,-9.35666900
0.79552000,-9.26755600
0.79584000,-9.26755600
0.79616000,-9.26755600
0.79648000,-9.26755600
0.79680000,-9.26755600
0.79712000,-9.26755600
0.79744000,-9.26755600
0.79776000,-9.26755600
0.79808000,-9.26755600
0.79840000,-9.26755600
0.79872000,-9.26755600
0.79904000,-9.35666900
0.79936000,-9.26755600
0.79968000,-9.26755600
0.80000000,-9.26755600
0.80032000,-9.26755600
0.80064000,-9.26755600
0.80096000,-9.35666900
0.80128000,-9.26755600
0.80160000,-9.26755600
0.80192000,-9.26755600
0.80224000,-9.26755600
0.80256000,-9.35666900
0.80288000,-9.26755600
0.80320000,-9.26755600
0.80352000,-9.26755600
0.80384000,-9.35666900
0.80416000,-9.26755600
0.80448000,-9.26755600
0.80480000,-9.35666900
0.80512000,-9.26755600
0.80544000,-9.26755600
0.80576000,-9.26755600
0.80608000,-9.26755600
0.80640000,-9.26755600
0.80672000,-9.26755600
0.80704000,-9.26755600
0.80736000,-9.26755600
0.80768000,-9.26755600
0.80800000,-9.26755600
0.80832000,-9.26755600
0.80864000,-9.26755600
0.80896000,-9.26755600
0.80928000,-9.26755600
0.80960000,-9.26755600
0.80992000,-9.26755600
0.81024000,-9.35666900
0.81056000,-9.26755600
0.81088000,-9.35666900
0.81120000,-9.26755600
0.81152000,-9.26755600
0.81184000,-9.26755600
0.81216000,-9.26755600
0.81248000,-9.26755600
0.81280000,-9.35666900
0.81312000,-9.35666900
0.81344000,-9.26755600
0.81376000,-9.26755600
0.81408000,-9.35666900
0.81440000,-9.26755600
0.81472000,-9.35666900
0.81504000,-9.26755600
0.81536000,-9.35666900
0.81568000,-9.35666900
0.81600000,-9.26755600
0.81632000,-9.26755600
0.81664000,-9.35666900
0.81696000,-9.35666900
0.81728000,-9.26755600
0.81760000,-9.26755600
0.81792000,-9.26755600
0.81824000,-9.26755600
0.81856000,-9.26755600
0.81888000,-9.26755600
0.81920000,-9.26755600
0.81952000,-9.26755600
0.81984000,-9.26755600
0.82016000,-9.26755600
0.82048000,-9.26755600
0.82080000,-9.26755600
0.82112000,-9.35666900
0.82144000,-9.26755600
0.82176000,-9.35666900
0.82208000,-9.26755600
0.82240000,-9.26755600
0.82271999,-9.26755600
0.82303999,-9.26755600
0.82335999,-9.26755600
0.82367999,-9.26755600
0.82399999,-9.26755600
0.82431999,-9.26755600
0.82463999,-9.26755600
0.82495999,-9.26755600
0.82527999,-9.26755600
0.82559999,-9.35666900
0.82591999,-9.26755600
0.82623999,-9.26755600
0.82655999,-9.26755600
0.82687999,-9.26755600
0.82719999,-9.35666900
0.82751999,-9.26755600
0.82783999,-9.26755600
0.82815999,-9.26755600
0.82847999,-9.26755600
0.82879999,-9.26755600
0.82911999,-9.26755600
0.82943999,-9.26755600
0.82975999,-9.26755600
0.83007999,-9.26755600
0.83039999,-9.26755600
0.83071999,-9.26755600
0.83103999,-9.35666900
0.83135999,-9.35666900
0.83167999,-9.26755600
0.83199999,-9.35666900
0.83231999,-9.35666900
0.83263999,-9.26755600
0.83295999,-9.26755600
0.83327999,-9.26755600
0.83359999,-9.26755600
0.83391999,-9.26755600
0.83423999,-9.26755600
0.83455999,-9.35666900
0.83487999,-9.26755600
0.83519999,-9.35666900
0.83551999,-9.26755600
0.83583999,-9.26755600
0.83615999,-9.26755600
0.83647999,-9.26755600
0.83679999,-9.26755600
0.83711999,-9.26755600
0.83743999,-9.26755600
0.83775999,-9.35666900
0.83807999,-9.26755600
0.83839999,-9.26755600
0.83871999,-9.35666900
0.83903999,-9.26755600
0.83935999,-9.35666900
0.83967999,-9.35666900
0.83999999,-9.26755600
0.84031999,-9.26755600
0.84063999,-9.35666900
0.84095999,-9.26755600
0.84127999,-9.26755600
0.84159999,-9.26755600
0.84191999,-9.26755600
0.84223999,-9.26755600
0.84255999,-9.26755600
0.84287999,-9.26755600
0.84319999,-9.26755600
0.84351999,-9.26755600
0.84383999,-9.26755600
0.84415999,-9.26755600
0.84447999,-9.26755600
0.84479999,-9.26755600
0.84511999,-9.26755600
0.84543999,-9.26755600
0.84575999,-9.26755600
0.84607999,-9.26755600
0.84639999,-9.35666900
0.84671999,-9.26755600
0.84703999,-9.35666900
0.84735999,-9.26755600
0.84767999,-9.35666900
0.84799999,-9.26755600
0.84831999,-9.26755600
0.84863999,-9.26755600
0.84895999,-9.26755600
0.84927999,-9.26755600
0.84959999,-9.26755600
0.84991999,-9.26755600
0.85023999,-9.26755600
0.85055999,-9.26755600
0.85087999,-9.26755600
0.85119999,-9.35666900
0.85151999,-9.26755600
0.85183999,-9.26755600
0.85215999,-9.35666900
0.85247999,-9.26755600
0.85279999,-9.26755600
0.85311999,-9.26755600
0.85343999,-9.26755600
0.85375999,-9.26755600
0.85407999,-9.26755600
0.85439999,-9.26755600
0.85471999,-9.26755600
0.85503999,-9.26755600
0.85535999,-9.26755600
0.85567999,-9.26755600
0.85599999,-9.35666900
0.85631999,-9.26755600
0.85663999,-9.35666900
0.85695999,-9.26755600
0.85727999,-9.26755600
0.85759999,-9.26755600
0.85791999,-9.26755600
0.85823999,-9.35666900
0.85855999,-9.35666900
0.85887999,-9.26755600
0.85919999,-9.26755600
0.85951999,-9.26755600
0.85983999,-9.26755600
0.86015999,-9.26755600
0.86047999,-9.35666900
0.86079999,-9.26755600
0.86111999,-9.26755600
0.86143999,-9.26755600
0.86175999,-9.26755600
0.86207999,-9.26755600
0.86239999,-9.26755600
0.86271999,-9.26755600
0.86303999,-9.26755600
0.86335999,-9.26755600
0.86367999,-9.26755600
0.86399999,-9.26755600
0.86431999,-9.26755600
0.86463999,-9.26755600
0.86495999,-9.35666900
0.86527999,-9.26755600
0.86559999,-9.26755600
0.86591999,-9.26755600
0.86623999,-9.26755600
0.86655999,-9.26755600
0.86687999,-9.26755600
0.86719999,-9.26755600
0.86751999,-9.26755600
0.86783999,-9.26755600
0.86815999,-9.26755600
0.86847999,-9.26755600
0.86879999,-9.26755600
0.86911999,-9.35666900
0.86943999,-9.26755600
0.86975999,-9.35666900
0.87007999,-9.26755600
0.87039999,-9.26755600
0.87071999,-9.35666900
0.87103999,-9.26755600
0.87135999,-9.26755600
0.87167999,-9.26755600
0.87199999,-9.26755600
0.87231999,-9.26755600
0.87263999,-9.26755600
0.87295999,-9.26755600
0.87327999,-9.26755600
0.87359999,-9.26755600
0.87391999,-9.26755600
0.87423999,-9.26755600
0.87455999,-9.26755600
0.87487999,-9.35666900
0.87519999,-9.26755600
0.87551999,-9.26755600
0.87583999,-9.26755600
0.87615999,-9.26755600
0.87647999,-9.26755600
0.87679999,-9.35666900
0.87711999,-9.26755600
0.87743999,-9.26755600
0.87775999,-9.26755600
0.87807999,-9.35666900
0.87839999,-9.35666900
0.87871999,-9.26755600
0.87903999,-9.26755600
0.87935999,-9.26755600
0.87967999,-9.26755600
0.87999999,-9.26755600
0.88031999,-9.26755600
0.88063999,-9.26755600
0.88095999,-9.26755600
0.88127999,-9.26755600
0.88159999,-9.26755600
0.88191999,-9.26755600
0.88223999,-9.26755600
0.88255999,-9.26755600
0.88287999,-9.26755600
0.88319999,-9.26755600
0.88351999,-9.26755600
0.88383999,-9.26755600
0.88415999,-9.26755600
0.88447999,-9.26755600
0.88479999,-9.26755600
0.88511999,-9.26755600
0.88543999,-9.35666900
0.88575999,-9.26755600
0.88607999,-9.26755600
0.88639999,-9.35666900
0.88671999,-9.26755600
0.88703999,-9.26755600
0.88735999,-9.35666900
0.88767999,-9.26755600
0.88799999,-9.26755600
0.88831999,-9.26755600
0.88863999,-9.26755600
0.88895999,-9.35666900
0.88927999,-9.26755600
0.88959999,-9.26755600
0.88991999,-9.35666900
0.89023999,-9.26755600
0.89055999,-9.26755600
0.89087999,-9.26755600
0.89119999,-9.26755600
0.89151999,-9.26755600
0.89183999,-9.26755600
0.89215999,-9.26755600
0.89247999,-9.26755600
0.89279999,-9.26755600
0.89311999,-9.26755600
0.89343999,-9.26755600
0.89375999,-9.26755600
0.89407999,-9.26755600
0.89439999,-9.26755600
0.89471999,-9.35666900
0.89503999,-9.26755600
0.89535999,-9.26755600
0.89567999,-9.26755600
0.89599999,-9.35666900
0.89631999,-9.26755600
0.89663999,-9.26755600
0.89695999,-9.26755600
0.89727999,-9.26755600
0.89759999,-9.26755600
0.89791999,-9.26755600
0.89823999,-9.35666900
0.89855999,-9.26755600
0.89887999,-9.26755600
0.89919999,-9.26755600
0.89951999,-9.26755600
0.89983999,-9.35666900
0.90015999,-9.26755600
0.90047999,-9.35666900
0.90079999,-9.26755600
0.90111999,-9.26755600
0.90143999,-9.26755600
0.90175999,-9.26755600
0.90207999,-9.26755600
0.90239999,-9.26755600
0.90271999,-9.35666900
0.90303999,-9.26755600
0.90335999,-9.26755600
0.90367999,-9.26755600
0.90399999,-9.26755600
0.90431999,-9.35666900
0.90463999,-9.26755600
0.90495999,-9.26755600
0.90527999,-9.26755600
0.90559999,-9.26755600
0.90591999,-9.35666900
0.90623999,-9.35666900
0.90655999,-9.26755600
0.90687999,-9.26755600
0.90719999,-9.35666900
0.90751999,-9.26755600
0.90783999,-9.26755600
0.90815999,-9.26755600
0.90847999,-9.26755600
0.90879999,-9.26755600
0.90911999,-9.26755600
0.90943999,-9.26755600
0.90975999,-9.26755600
0.91007999,-9.26755600
0.91039999,-9.26755600
0.91071999,-9.26755600
0.91103999,-9.35666900
0.91135999,-9.35666900
0.91167999,-9.26755600
0.91199999,-9.26755600
0.91231999,-9.26755600
0.91263999,-9.35666900
0.91295999,-9.26755600
0.91327999,-9.35666900
0.91359999,-9.26755600
0.91391999,-9.26755600
0.91423999,-9.26755600
0.91455999,-9.26755600
0.91487999,-9.26755600
0.91519999,-9.26755600
0.91551999,-9.26755600
0.91583999,-9.26755600
0.91615999,-9.26755600
0.91647999,-9.26755600
0.91679999,-9.26755600
0.91711999,-9.26755600
0.91743999,-9.26755600
0.91775999,-9.26755600
0.91807999,-9.35666900
0.91839999,-9.35666900
0.91871999,-9.26755600
0.91903999,-9.26755600
0.91935999,-9.35666900
0.91967999,-9.35666900
0.91999999,-9.26755600
0.92031999,-9.26755600
0.92063999,-9.26755600
0.92095999,-9.26755600
0.92127999,-9.26755600
0.92159999,-9.26755600
0.92191999,-9.26755600
0.92223999,-9.26755600
0.92255999,-9.35666900
0.92287999,-9.26755600
0.92319999,-9.26755600
0.92351999,-9.26755600
0.92383999,-9.26755600
0.92415999,-9.26755600
0.92447999,-9.35666900
0.92479999,-9.26755600
0.92511999,-9.35666900
0.92543999,-9.26755600
0.92575999,-9.35666900
0.92607999,-9.26755600
0.92639999,-9.26755600
0.92671999,-9.26755600
0.92703999,-9.26755600
0.92735999,-9.26755600
0.92767999,-9.26755600
0.92799999,-9.35666900
0.92831999,-9.26755600
0.92863999,-9.35666900
0.92895999,-9.26755600
0.92927999,-9.35666900
0.92959999,-9.26755600
0.92991999,-9.26755600
0.93023999,-9.26755600
0.93055999,-9.35666900
0.93087999,-9.26755600
0.93119999,-9.26755600
0.93151999,-9.26755600
0.93183999,-9.35666900
0.93215999,-9.26755600
0.93247999,-9.35666900
0.93279999,-9.26755600
0.93311999,-9.26755600
0.93343999,-9.26755600
0.93375999,-9.26755600
0.93407999,-9.35666900
0.93439999,-9.26755600
0.93471999,-9.26755600
0.93503999,-9.26755600
0.93535999,-9.26755600
0.93567999,-9.26755600
0.93599999,-9.26755600
0.93631999,-9.26755600
0.93663999,-9.26755600
0.93695999,-9.26755600
0.93727999,-9.17844200
0.93759999,-9.17844200
0.93791999,-9.17844200
0.93823999,-9.08932800
0.93855999,-9.00021400
0.93887999,-9.00021400
0.93919999,-9.00021400
0.93951999,-8.91109900
0.93983999,-8.82198500
0.94015999,-8.82198500
0.94047999,-8.73287100
0.94079999,-8.64375800
0.94111999,-8.64375800
0.94143999,-8.55464400
0.94175999,-8.46552900
0.94207999,-8.37641500
0.94239999,-8.37641500
0.94271999,-8.28730100
0.94303999,-8.28730100
0.94335999,-8.19818700
0.94367999,-8.10907300
0.94399999,-8.10907300
0.94431999,-8.01995900
0.94463999,-8.01995900
0.94495999,-7.93084500
0.94527999,-7.84173100
0.94559999,-7.84173100
0.94591999,-7.75261700
0.94623999,-7.66350300
0.94655999,-7.57438900
0.94687999,-7.57438900
0.94719999,-7.48527500
0.94751999,-7.48527500
0.94783999,-7.39616100
0.94815999,-7.30704700
0.94847999,-7.30704700
0.94879999,-7.21793300
0.94911999,-7.21793300
0.94943999,-7.12881900
0.94975999,-7.03970500
0.95007999,-7.03970500
0.95039999,-6.95059100
0.95071999,-6.86147600
0.95103999,-6.86147600
0.95135999,-6.77236200
0.95167999,-6.77236200
0.95199999,-6.68324900
0.95231999,-6.68324900
0.95263999,-6.59413400
0.95295999,-6.50502000
0.95327999,-6.50502000
0.95359999,-6.41590600
0.95391999,-6.41590600
0.95423999,-6.32679200
0.95455999,-6.23767800
0.95487999,-6.23767800
0.95519999,-6.14856400
0.95551999,-6.14856400
0.95583999,-6.05945000
0.95615999,-5.97033600
0.95647999,-5.97033600
0.95679999,-5.88122200
0.95711999,-5.79210800
0.95743999,-5.79210800
0.95775999,-5.70299400
0.95807999,-5.61357500
0.95839999,-5.61357500
0.95871999,-5.52446100
0.95903999,-5.52446100
0.95935999,-5.43534700
0.95967999,-5.43534700
0.95999999,-5.34623200
0.96031999,-5.34623200
0.96063999,-5.25711800
0.96095999,-5.16800500
0.96127999,-5.16800500
0.96159999,-5.07889000
0.96191999,-4.98977600
0.96223999,-4.98977600
0.96255999,-4.90066200
0.96287999,-4.81154800
0.96319999,-4.81154800
0.96351999,-4.72243400
0.96383999,-4.72243400
0.96415999,-4.63332000
0.96447999,-4.54420600
0.96479999,-4.54420600
0.96511999,-4.45509200
0.96543999,-4.45509200
0.96575999,-4.36597800
0.96607999,-4.27686400
0.96639999,-4.18775000
0.96671999,-4.18775000
0.96703999,-4.09863600
0.96735999,-4.09863600
0.96767999,-4.00952200
0.96799999,-4.00952200
0.96831999,-4.00952200
0.96863999,-3.83129400
0.96895999,-3.83129400
0.96927999,-3.74218000
0.96959999,-3.65306600
0.96991999,-3.65306600
0.97023999,-3.56395100
0.97055999,-3.56395100
0.97087999,-3.47483800
0.97119999,-3.47483800
0.97151999,-3.38572300
0.97183999,-3.29660900
0.97215999,-3.29660900
0.97247999,-3.20749500
0.97279999,-3.20749500
0.97311999,-3.11838100
0.97343999,-3.11838100
0.97375999,-3.02926700
0.97407999,-2.94015300
0.97439999,-2.85103900
0.97471999,-2.85103900
0.97503999,-2.76192500
0.97535999,-2.76192500
0.97567999,-2.67281100
0.97599999,-2.58369700
0.97631999,-2.58369700
0.97663999,-2.49458300
0.97695999,-2.49458300
0.97727999,-2.40546900
0.97759999,-2.40546900
0.97791999,-2.31635500
0.97823999,-2.22724100
0.97855999,-2.22724100
0.97887999,-2.13812700
0.97919999,-2.13812700
0.97951999,-2.04901300
0.97983999,-2.04901300
0.98015999,-1.95989900
0.98047999,-1.87078500
0.98079999,-1.87078500
0.98111999,-1.78167100
0.98143999,-1.69255700
0.98175999,-1.69255700
0.98207999,-1.60344200
0.98239999,-1.51432800
0.98271999,-1.51432800
0.98303999,-1.51432800
0.98335999,-1.42521400
0.98367999,-1.33610000
0.98399999,-1.33610000
0.98431999,-1.24698600
0.98463999,-1.15787200
0.98495999,-1.15787200
0.98527999,-1.06875800
0.98559999,-0.97964420
0.98591999,-0.97964420
0.98623999,-0.89053010
0.98655999,-0.80141600
0.98687999,-0.80141600
0.98719999,-0.71230200
0.98751999,-0.71230200
0.98783999,-0.62318800
0.98815999,-0.62318800
0.98847999,-0.53407390
0.98879999,-0.44495990
0.98911999,-0.44495990
0.98943999,-0.35584580
0.98975999,-0.35584580
0.99007999,-0.26673180
0.99039999,-0.26673180
0.99071999,-0.17761770
0.99103999,-0.08850368
0.99135999,-0.08850368
0.99167999,-0.08850368
0.99199999,0.00061037
0.99231999,0.08972442
0.99263999,0.08972442
0.99295999,0.08972442
0.99327999,0.08972442
0.99359999,0.08972442
0.99391999,0.00061037
0.99423999,0.00061037
0.99455999,0.00061037
0.99487999,-0.08850368
0.99519999,-0.08850368
0.99551999,-0.08850368
0.99583999,-0.08850368
0.99615999,-0.08850368
0.99647999,-0.08850368
0.99679999,-0.17761770
0.99711999,-0.17761770
0.99743999,-0.17761770
0.99775999,-0.17761770
0.99807999,-0.17761770
0.99839999,-0.17761770
0.99871999,-0.17761770
0.99903999,-0.17761770
0.99935999,-0.17761770
0.99967999,-0.17761770
0.99999999,-0.26673180
1.00031999,-0.17761770
1.00063999,-0.17761770
1.00095999,-0.26673180
1.00127999,-0.26673180
1.00159999,-0.26673180
1.00191999,-0.26673180
1.00223999,-0.26673180
1.00255999,-0.17761770
1.00287999,-0.17761770
1.00319999,-0.26673180
1.00351999,-0.17761770
1.00383999,-0.26673180
1.00415999,-0.26673180
1.00447999,-0.26673180
1.00479999,-0.26673180
1.00511999,-0.26673180
1.00543999,-0.26673180
1.00575999,-0.17761770
1.00607999,-0.17761770
1.00639999,-0.17761770
1.00671999,-0.26673180
1.00703999,-0.17761770
1.00735999,-0.26673180
1.00767999,-0.17761770
1.00799999,-0.26673180
1.00831999,-0.26673180
1.00863999,-0.26673180
1.00895999,-0.26673180
1.00927999,-0.26673180
1.00959999,-0.17761770
1.00991999,-0.26673180
1.01023999,-0.26673180
1.01055999,-0.26673180
1.01087999,-0.26673180
1.01119999,-0.26673180
1.01151999,-0.26673180
1.01183999,-0.26673180
1.01215999,-0.35584580
1.01247999,-0.35584580
1.01279999,-0.35584580
1.01311999,-0.35584580
1.01343999,-0.35584580
1.01375999,-0.35584580
1.01407999,-0.35584580
1.01439999,-0.44495990
1.01471999,-0.44495990
1.01503999,-0.44495990
1.01535999,-0.44495990
1.01567999,-0.44495990
1.01599999,-0.44495990
1.01631999,-0.53407390
1.01663999,-0.53407390
1.01695999,-0.53407390
1.01727999,-0.62318800
1.01759999,-0.62318800
1.01791999,-0.62318800
1.01823999,-0.62318800
1.01855999,-0.71230200
1.01887999,-0.71230200
1.01919999,-0.71230200
1.01951999,-0.71230200
1.01983999,-0.71230200
1.02015999,-0.71230200
1.02047999,-0.71230200
1.02079999,-0.71230200
1.02111999,-0.80141600
1.02143999,-0.80141600
1.02175999,-0.80141600
1.02207999,-0.80141600
1.02239999,-0.80141600
1.02271999,-0.89053010
1.02303999,-0.89053010
1.02335999,-0.89053010
1.02367999,-0.89053010
1.02399999,-0.97964420
1.02431999,-0.97964420
1.02463999,-0.97964420
1.02495999,-0.97964420
1.02527999,-0.97964420
1.02559999,-0.97964420
1.02591999,-1.06875800
1.02623999,-1.06875800
1.02655999,-1.06875800
1.02687999,-1.15787200
1.02719999,-1.15787200
1.02751999,-1.15787200
1.02783999,-1.15787200
1.02815999,-1.15787200
1.02847999,-1.15787200
1.02879999,-1.15787200
1.02911999,-1.24698600
1.02943999,-1.24698600
1.02975999,-1.24698600
1.03007999,-1.24698600
1.03039999,-1.33610000
1.03071999,-1.33610000
1.03103999,-1.33610000
1.03135999,-1.33610000
1.03167999,-1.42521400
1.03199999,-1.42521400
1.03231999,-1.42521400
1.03263999,-1.42521400
1.03295999,-1.42521400
1.03327999,-1.51432800
1.03359999,-1.51432800
1.03391999,-1.51432800
1.03423999,-1.51432800
1.03455999,-1.51432800
1.03487999,-1.51432800
1.03519999,-1.51432800
1.03551999,-1.51432800
1.03583999,-1.60344200
1.03615999,-1.60344200
1.03647999,-1.60344200
1.03679999,-1.60344200
1.03711999,-1.69255700
1.03743999,-1.69255700
1.03775999,-1.69255700
1.03807999,-1.69255700
1.03839999,-1.69255700
1.03871999,-1.69255700
1.03903999,-1.69255700
1.03935999,-1.78167100
1.03967999,-1.78167100
1.03999999,-1.78167100
1.04031999,-1.87078500
1.04063999,-1.87078500
1.04095999,-1.87078500
1.04127999,-1.87078500
1.04159999,-1.87078500
1.04191999,-1.87078500
1.04223999,-1.87078500
1.04255999,-1.87078500
1.04287999,-1.95989900
1.04319999,-1.87078500
1.04351999,-1.95989900
1.04383999,-2.04901300
1.04415999,-1.95989900
1.04447999,-2.04901300
1.04479999,-2.04901300
1.04511999,-2.04901300
1.04543999,-2.04901300
1.04575999,-2.04901300
1.04607999,-2.13812700
1.04639999,-2.04901300
1.04671999,-2.13812700
1.04703999,-2.13812700
1.04735999,-2.13812700
1.04767999,-2.13812700
1.04799999,-2.22724100
1.04831999,-2.13812700
1.04863999,-2.22724100
1.04895999,-2.22724100
1.04927999,-2.22724100
1.04959999,-2.22724100
1.04991999,-2.22724100
1.05023999,-2.22724100
1.05055999,-2.31635500
1.05087999,-2.31635500
1.05119999,-2.31635500
1.05151999,-2.40546900
1.05183999,-2.31635500
1.05215999,-2.31635500
1.05247999,-2.40546900
1.05279999,-2.40546900
1.05311999,-2.40546900
1.05343999,-2.40546900
1.05375999,-2.40546900
1.05407999,-2.40546900
1.05439999,-2.40546900
1.05471999,-2.40546900
1.05503999,-2.40546900
1.05535999,-2.40546900
1.05567999,-2.40546900
1.05599999,-2.40546900
1.05631999,-2.40546900
1.05663999,-2.40546900
1.05695999,-2.40546900
1.05727999,-2.40546900
1.05759999,-2.40546900
1.05791999,-2.40546900
1.05823999,-2.40546900
1.05855999,-2.40546900
1.05887999,-2.31635500
1.05919999,-2.31635500
1.05951999,-2.22724100
1.05983999,-2.22724100
1.06015999,-2.13812700
1.06047999,-2.13812700
1.06079999,-2.04901300
1.06111999,-2.04901300
1.06143999,-1.95989900
1.06175999,-1.95989900
1.06207999,-1.87078500
1.06239999,-1.87078500
1.06271999,-1.78167100
1.06303999,-1.78167100
1.06335999,-1.69255700
1.06367999,-1.60344200
1.06399999,-1.51432800
1.06431999,-1.51432800
1.06463999,-1.42521400
1.06495999,-1.42521400
1.06527999,-1.33610000
1.06559999,-1.33610000
1.06591999,-1.33610000
1.06623999,-1.24698600
1.06655999,-1.15787200
1.06687999,-1.15787200
1.06719999,-1.15787200
1.06751999,-1.06875800
1.06783999,-1.06875800
1.06815999,-0.97964420
1.06847999,-0.97964420
1.06879999,-0.97964420
1.06911999,-0.97964420
1.06943999,-0.89053010
1.06975999,-0.89053010
1.07007999,-0.89053010
1.07039999,-0.80141600
1.07071999,-0.80141600
1.07103999,-0.80141600
1.07135999,-0.80141600
1.07167999,-0.80141600
1.07199999,-0.80141600
1.07231999,-0.71230200
1.07263999,-0.71230200
1.07295999,-0.71230200
1.07327999,-0.71230200
1.07359999,-0.71230200
1.07391999,-0.71230200
1.07423999,-0.71230200
1.07455999,-0.71230200
1.07487999,-0.71230200
1.07519999,-0.62318800
1.07551999,-0.62318800
1.07583999,-0.71230200
1.07615999,-0.62318800
1.07647999,-0.62318800
1.07679999,-0.62318800
1.07711999,-0.62318800
1.07743999,-0.62318800
1.07775999,-0.62318800
1.07807999,-0.62318800
1.07839999,-0.62318800
1.07871999,-0.62318800
1.07903999,-0.53407390
1.07935999,-0.53407390
1.07967999,-0.53407390
1.07999999,-0.53407390
1.08031999,-0.53407390
1.08063999,-0.53407390
1.08095999,-0.53407390
1.08127999,-0.53407390
1.08159999,-0.53407390
1.08191999,-0.53407390
1.08223999,-0.44495990
1.08255999,-0.44495990
1.08287999,-0.53407390
1.08319999,-0.53407390
1.08351999,-0.53407390
1.08383999,-0.44495990
1.08415999,-0.53407390
1.08447999,-0.44495990
1.08479999,-0.44495990
1.08511999,-0.44495990
1.08543999,-0.44495990
1.08575999,-0.44495990
1.08607999,-0.44495990
1.08639999,-0.44495990
1.08671999,-0.44495990
1.08703999,-0.44495990
1.08735999,-0.44495990
1.08767999,-0.44495990
1.08799999,-0.44495990
1.08831999,-0.44495990
1.08863999,-0.44495990
1.08895999,-0.44495990
1.08927999,-0.44495990
1.08959999,-0.44495990
1.08991999,-0.44495990
1.09023999,-0.44495990
1.09055999,-0.44495990
1.09087999,-0.44495990
1.09119999,-0.44495990
1.09151999,-0.44495990
1.09183999,-0.44495990
1.09215999,-0.44495990
1.09247999,-0.44495990
1.09279999,-0.44495990
1.09311999,-0.44495990
1.09343999,-0.44495990
1.09375999,-0.44495990
1.09407999,-0.44495990
1.09439999,-0.44495990
1.09471999,-0.44495990
1.09503999,-0.44495990
1.09535999,-0.44495990
1.09567999,-0.44495990
1.09599999,-0.44495990
1.09631999,-0.44495990
1.09663999,-0.44495990
1.09695999,-0.44495990
1.09727999,-0.44495990
1.09759999,-0.44495990
1.09791999,-0.44495990
1.09823999,-0.44495990
1.09855999,-0.44495990
1.09887999,-0.44495990
1.09919999,-0.44495990
1.09951999,-0.44495990
1.09983999,-0.44495990
1.10015999,-0.44495990
1.10047999,-0.44495990
1.10079999,-0.44495990
1.10111999,-0.44495990
1.10143999,-0.44495990
1.10175999,-0.44495990
1.10207999,-0.44495990
1.10239999,-0.44495990
1.10271999,-0.44495990
1.10303999,-0.44495990
1.10335999,-0.44495990
1.10367999,-0.44495990
1.10399999,-0.44495990
1.10431999,-0.44495990
1.10463999,-0.44495990
1.10495999,-0.44495990
1.10527999,-0.44495990
1.10559999,-0.44495990
1.10591999,-0.44495990
1.10623999,-0.44495990
1.10655999,-0.44495990
1.10687999,-0.44495990
1.10719999,-0.44495990
1.10751999,-0.44495990
1.10783999,-0.44495990
1.10815999,-0.44495990
1.10847999,-0.44495990
1.10879999,-0.44495990
1.10911999,-0.44495990
1.10943999,-0.44495990
1.10975999,-0.44495990
1.11007999,-0.44495990
1.11039999,-0.44495990
1.11071999,-0.44495990
1.11103999,-0.44495990
1.11135999,-0.44495990
1.11167999,-0.44495990
1.11199999,-0.44495990
1.11231999,-0.44495990
1.11263999,-0.44495990
1.11295999,-0.44495990
1.11327999,-0.44495990
1.11359999,-0.44495990
1.11391999,-0.44495990
1.11423999,-0.44495990
1.11455999,-0.44495990
1.11487999,-0.44495990
1.11519999,-0.44495990
1.11551999,-0.44495990
1.11583999,-0.44495990
1.11615999,-0.44495990
1.11647999,-0.44495990
1.11679999,-0.44495990
1.11711999,-0.44495990
1.11743999,-0.44495990
1.11775999,-0.44495990
1.11807999,-0.35584580
1.11839999,-0.44495990
1.11871999,-0.44495990
1.11903999,-0.44495990
1.11935999,-0.44495990
1.11967999,-0.44495990
1.11999999,-0.44495990
1.12031999,-0.44495990
1.12063999,-0.44495990
1.12095999,-0.44495990
1.12127999,-0.44495990
1.12159999,-0.44495990
1.12191999,-0.44495990
1.12223999,-0.44495990
1.12255999,-0.44495990
1.12287999,-0.44495990
1.12319999,-0.44495990
1.12351999,-0.35584580
1.12383999,-0.44495990
1.12415999,-0.44495990
1.12447999,-0.44495990
1.12479999,-0.44495990
1.12511999,-0.44495990
1.12543999,-0.44495990
1.12575999,-0.44495990
1.12607999,-0.44495990
1.12639999,-0.44495990
1.12671999,-0.44495990
1.12703999,-0.44495990
1.12735999,-0.44495990
1.12767999,-0.44495990
1.12799999,-0.44495990
1.12831999,-0.44495990
1.12863999,-0.44495990
1.12895999,-0.44495990
1.12927999,-0.44495990
1.12959999,-0.44495990
1.12991999,-0.44495990
1.13023999,-0.44495990
1.13055999,-0.44495990
1.13087999,-0.44495990
1.13119999,-0.44495990
1.13151999,-0.44495990
1.13183999,-0.44495990
1.13215999,-0.44495990
1.13247999,-0.44495990
1.13279999,-0.44495990
1.13311999,-0.44495990
1.13343999,-0.44495990
1.13375999,-0.44495990
1.13407999,-0.44495990
1.13439999,-0.44495990
1.13471999,-0.44495990
1.13503999,-0.44495990
1.13535999,-0.44495990
1.13567999,-0.44495990
1.13599999,-0.44495990
1.13631999,-0.44495990
1.13663999,-0.44495990
1.13695999,-0.44495990
1.13727999,-0.44495990
1.13759999,-0.44495990
1.13791999,-0.44495990
1.13823999,-0.44495990
1.13855999,-0.44495990
1.13887999,-0.44495990
1.13919999,-0.44495990
1.13951999,-0.44495990
1.13983999,-0.44495990
1.14015999,-0.44495990
1.14047999,-0.44495990
1.14079999,-0.44495990
1.14111999,-0.44495990
1.14143999,-0.44495990
1.14175999,-0.44495990
1.14207999,-0.44495990
1.14239999,-0.44495990
1.14271999,-0.44495990
1.14303999,-0.44495990
1.14335999,-0.44495990
1.14367999,-0.44495990
1.14399999,-0.44495990
1.14431999,-0.44495990
1.14463999,-0.44495990
1.14495999,-0.44495990
1.14527999,-0.44495990
1.14559999,-0.44495990
1.14591999,-0.44495990
1.14623999,-0.44495990
1.14655999,-0.44495990
1.14687999,-0.44495990
1.14719999,-0.44495990
1.14751999,-0.44495990
1.14783999,-0.44495990
1.14815999,-0.44495990
1.14847999,-0.44495990
1.14879999,-0.44495990
1.14911999,-0.44495990
1.14943999,-0.44495990
1.14975999,-0.44495990
1.15007999,-0.44495990
1.15039999,-0.44495990
1.15071999,-0.44495990
1.15103999,-0.44495990
1.15135999,-0.44495990
1.15167999,-0.44495990
1.15199999,-0.44495990
1.15231999,-0.44495990
1.15263999,-0.44495990
1.15295999,-0.44495990
1.15327999,-0.44495990
1.15359999,-0.44495990
1.15391999,-0.44495990
1.15423999,-0.44495990
1.15455999,-0.44495990
1.15487999,-0.44495990
1.15519999,-0.44495990
1.15551999,-0.44495990
1.15583999,-0.44495990
1.15615999,-0.44495990
1.15647999,-0.44495990
1.15679999,-0.44495990
1.15711999,-0.44495990
1.15743999,-0.44495990
1.15775999,-0.44495990
1.15807999,-0.44495990
1.15839999,-0.44495990
1.15871999,-0.53407390
1.15903999,-0.44495990
1.15935999,-0.44495990
1.15967999,-0.44495990
1.15999999,-0.44495990
1.16031999,-0.44495990
1.16063999,-0.44495990
1.16095999,-0.53407390
1.16127999,-0.44495990
1.16159999,-0.44495990
1.16191999,-0.44495990
1.16223999,-0.44495990
1.16255999,-0.53407390
1.16287999,-0.53407390
1.16319999,-0.53407390
1.16351999,-0.53407390
1.16383999,-0.44495990
1.16415999,-0.44495990
1.16447999,-0.44495990
1.16479999,-0.44495990
1.16511999,-0.53407390
1.16543999,-0.44495990
1.16575999,-0.53407390
1.16607999,-0.53407390
1.16639999,-0.53407390
1.16671999,-0.53407390
1.16703999,-0.44495990
1.16735999,-0.44495990
1.16767999,-0.53407390
1.16799999,-0.53407390
1.16831999,-0.53407390
1.16863999,-0.53407390
1.16895999,-0.44495990
1.16927999,-0.53407390
1.16959999,-0.53407390
1.16991999,-0.53407390
1.17023999,-0.44495990
1.17055999,-0.44495990
1.17087999,-0.44495990
1.17119999,-0.53407390
1.17151999,-0.53407390
1.17183999,-0.53407390
1.17215999,-0.53407390
1.17247999,-0.53407390
1.17279999,-0.44495990
1.17311999,-0.53407390
1.17343999,-0.53407390
1.17375999,-0.53407390
1.17407999,-0.53407390
1.17439999,-0.44495990
1.17471999,-0.53407390
1.17503999,-0.53407390
1.17535999,-0.53407390
1.17567999,-0.53407390
1.17599999,-0.53407390
1.17631999,-0.53407390
1.17663999,-0.44495990
1.17695999,-0.53407390
1.17727999,-0.53407390
1.17759999,-0.53407390
1.17791999,-0.53407390
1.17823999,-0.53407390
1.17855999,-0.53407390
1.17887999,-0.53407390
1.17919999,-0.53407390
1.17951999,-0.53407390
1.17983999,-0.53407390
1.18015999,-0.53407390
1.18047999,-0.53407390
1.18079999,-0.53407390
1.18111999,-0.53407390
1.18143999,-0.53407390
1.18175999,-0.53407390
1.18207999,-0.53407390
1.18239999,-0.53407390
1.18271999,-0.53407390
1.18303999,-0.53407390
1.18335999,-0.53407390
1.18367999,-0.53407390
1.18399999,-0.53407390
1.18431999,-0.53407390
1.18463999,-0.53407390
1.18495999,-0.53407390
1.18527999,-0.53407390
1.18559999,-0.53407390
1.18591999,-0.53407390
1.18623999,-0.53407390
1.18655999,-0.53407390
1.18687999,-0.53407390
1.18719999,-0.53407390
1.18751999,-0.53407390
1.18783999,-0.53407390
1.18815999,-0.53407390
1.18847999,-0.53407390
1.18879999,-0.53407390
1.18911999,-0.53407390
1.18943999,-0.53407390
1.18975999,-0.53407390
1.19007999,-0.53407390
1.19039999,-0.53407390
1.19071999,-0.53407390
1.19103999,-0.53407390
1.19135999,-0.53407390
1.19167999,-0.53407390
1.19199999,-0.53407390
1.19231999,-0.53407390
1.19263999,-0.62318800
1.19295999,-0.53407390
1.19327999,-0.53407390
1.19359999,-0.53407390
1.19391999,-0.53407390
1.19423999,-0.53407390
1.19455999,-0.53407390
1.19487999,-0.53407390
1.19519999,-0.53407390
1.19551999,-0.53407390
1.19583999,-0.53407390
1.19615999,-0.62318800
1.19647999,-0.53407390
1.19679999,-0.53407390
1.19711999,-0.53407390
1.19743999,-0.53407390
1.19775999,-0.53407390
1.19807999,-0.62318800
1.19839999,-0.62318800
1.19871999,-0.62318800
1.19903999,-0.53407390
1.19935999,-0.53407390
1.19967999,-0.62318800
1.19999999,-0.62318800
1.20031999,-0.53407390
1.20063999,-0.53407390
1.20095999,-0.62318800
1.20127999,-0.62318800
1.20159999,-0.53407390
1.20191999,-0.62318800
1.20223999,-0.62318800
1.20255999,-0.62318800
1.20287999,-0.62318800
1.20319999,-0.53407390
1.20351999,-0.62318800
1.20383999,-0.62318800
1.20415999,-0.62318800
1.20447999,-0.62318800
1.20479999,-0.62318800
1.20511999,-0.62318800
1.20543999,-0.62318800
1.20575999,-0.62318800
1.20607999,-0.62318800
1.20639999,-0.62318800
1.20671999,-0.62318800
1.20703999,-0.62318800
1.20735999,-0.62318800
1.20767999,-0.62318800
1.20799999,-0.62318800
1.20831999,-0.62318800
1.20863999,-0.62318800
1.20895999,-0.62318800
1.20927999,-0.62318800
1.20959999,-0.62318800
1.20991999,-0.62318800
1.21023999,-0.62318800
1.21055999,-0.62318800
1.21087999,-0.62318800
1.21119999,-0.62318800
1.21151999,-0.62318800
1.21183999,-0.62318800
1.21215999,-0.62318800
1.21247999,-0.62318800
1.21279999,-0.62318800
1.21311999,-0.62318800
1.21343999,-0.62318800
1.21375999,-0.62318800
1.21407999,-0.62318800
1.21439999,-0.62318800
1.21471999,-0.62318800
1.21503999,-0.62318800
1.21535999,-0.62318800
1.21567999,-0.62318800
1.21599999,-0.62318800
1.21631999,-0.62318800
1.21663999,-0.62318800
1.21695999,-0.62318800
1.21727999,-0.62318800
1.21759999,-0.62318800
1.21791999,-0.62318800
1.21823999,-0.62318800
1.21855999,-0.62318800
1.21887999,-0.62318800
1.21919999,-0.62318800
1.21951999,-0.62318800
1.21983999,-0.62318800
1.22015999,-0.62318800
1.22047999,-0.62318800
1.22079999,-0.62318800
1.22111999,-0.62318800
1.22143999,-0.62318800
1.22175999,-0.62318800
1.22207999,-0.62318800
1.22239999,-0.62318800
1.22271999,-0.62318800
1.22303999,-0.62318800
1.22335999,-0.62318800
1.22367999,-0.62318800
1.22399999,-0.71230200
1.22431999,-0.62318800
1.22463999,-0.62318800
1.22495999,-0.62318800
1.22527999,-0.62318800
1.22559999,-0.62318800
1.22591999,-0.62318800
1.22623999,-0.62318800
1.22655999,-0.62318800
1.22687999,-0.62318800
1.22719999,-0.62318800
1.22751999,-0.62318800
1.22783999,-0.62318800
1.22815999,-0.62318800
1.22847999,-0.62318800
1.22879999,-0.62318800
1.22911999,-0.62318800
1.22943999,-0.62318800
1.22975999,-0.62318800
1.23007999,-0.62318800
1.23039999,-0.62318800
1.23071999,-0.62318800
1.23103999,-0.62318800
1.23135999,-0.62318800
1.23167999,-0.62318800
1.23199999,-0.62318800
1.23231999,-0.62318800
1.23263999,-0.62318800
1.23295999,-0.62318800
1.23327999,-0.62318800
1.23359999,-0.62318800
1.23391999,-0.62318800
1.23423999,-0.62318800
1.23455999,-0.62318800
1.23487999,-0.62318800
1.23519999,-0.62318800
1.23551999,-0.62318800
1.23583999,-0.62318800
1.23615999,-0.62318800
1.23647999,-0.62318800
1.23679999,-0.62318800
1.23711999,-0.62318800
1.23743999,-0.62318800
1.23775999,-0.62318800
1.23807999,-0.62318800
1.23839999,-0.62318800
1.23871999,-0.62318800
1.23903999,-0.62318800
1.23935999,-0.62318800
1.23967999,-0.62318800
1.23999999,-0.62318800
1.24031999,-0.62318800
1.24063999,-0.71230200
1.24095999,-0.71230200
1.24127999,-0.62318800
1.24159999,-0.62318800
1.24191999,-0.62318800
1.24223999,-0.62318800
1.24255999,-0.62318800
1.24287999,-0.62318800
1.24319999,-0.62318800
1.24351999,-0.71230200
1.24383999,-0.71230200
1.24415999,-0.62318800
1.24447999,-0.62318800
1.24479999,-0.62318800
1.24511999,-0.62318800
1.24543999,-0.62318800
1.24575999,-0.62318800
1.24607999,-0.62318800
1.24639999,-0.71230200
1.24671999,-0.62318800
1.24703999,-0.62318800
1.24735999,-0.62318800
1.24767999,-0.71230200
1.24799999,-0.71230200
1.24831999,-0.62318800
1.24863999,-0.62318800
1.24895999,-0.62318800
1.24927999,-0.62318800
1.24959999,-0.62318800
1.24991999,-0.71230200
1.25023999,-0.62318800
1.25055999,-0.62318800
1.25087999,-0.62318800
1.25119999,-0.71230200
1.25151999,-0.71230200
1.25183999,-0.62318800
1.25215999,-0.71230200
1.25247999,-0.71230200
1.25279999,-0.71230200
1.25311999,-0.62318800
1.25343999,-0.71230200
1.25375999,-0.71230200
1.25407999,-0.71230200
1.25439999,-0.62318800
1.25471999,-0.62318800
1.25503999,-0.71230200
1.25535999,-0.62318800
1.25567999,-0.62318800
1.25599999,-0.71230200
1.25631999,-0.71230200
1.25663999,-0.62318800
1.25695999,-0.71230200
1.25727999,-0.62318800
1.25759999,-0.71230200
1.25791999,-0.62318800
1.25823999,-0.71230200
1.25855999,-0.71230200
1.25887999,-0.71230200
1.25919999,-0.71230200
1.25951999,-0.62318800
1.25983999,-0.71230200
1.26015999,-0.62318800
1.26047999,-0.71230200
1.26079999,-0.71230200
1.26111999,-0.71230200
1.26143999,-0.71230200
1.26175999,-0.71230200
1.26207999,-0.71230200
1.26239999,-0.71230200
1.26271999,-0.71230200
1.26303999,-0.71230200
1.26335999,-0.71230200
1.26367999,-0.71230200
1.26399999,-0.71230200
1.26431999,-0.71230200
1.26463999,-0.71230200
1.26495999,-0.71230200
1.26527999,-0.71230200
1.26559999,-0.71230200
1.26591999,-0.71230200
1.26623999,-0.71230200
1.26655999,-0.71230200
1.26687999,-0.71230200
1.26719999,-0.71230200
1.26751999,-0.71230200
1.26783999,-0.71230200
1.26815999,-0.71230200
1.26847999,-0.80141600
1.26879999,-0.71230200
1.26911999,-0.71230200
1.26943999,-0.71230200
1.26975999,-0.71230200
1.27007999,-0.71230200
1.27039999,-0.71230200
1.27071999,-0.71230200
1.27103999,-0.71230200
1.27135999,-0.80141600
1.27167999,-0.71230200
1.27199999,-0.71230200
1.27231999,-0.71230200
1.27263999,-0.71230200
1.27295999,-0.71230200
1.27327999,-0.71230200
1.27359999,-0.71230200
1.27391999,-0.71230200
1.27423999,-0.71230200
1.27455999,-0.71230200
1.27487999,-0.71230200
1.27519999,-0.80141600
1.27551999,-0.71230200
1.27583999,-0.71230200
1.27615999,-0.80141600
1.27647999,-0.80141600
1.27679999,-0.80141600
1.27711999,-0.80141600
1.27743999,-0.80141600
1.27775999,-0.80141600
1.27807999,-0.80141600
1.27839999,-0.80141600
1.27871999,-0.71230200
1.27903999,-0.80141600
1.27935999,-0.80141600
1.27967999,-0.80141600
1.27999999,-0.80141600
1.28031999,-0.80141600
1.28063999,-0.80141600
1.28095999,-0.80141600
1.28127999,-0.80141600
1.28159999,-0.80141600
1.28191999,-0.80141600
1.28223999,-0.80141600
1.28255999,-0.80141600
1.28287999,-0.80141600
1.28319999,-0.80141600
1.28351999,-0.80141600
1.28383999,-0.80141600
1.28415999,-0.80141600
1.28447999,-0.80141600
1.28479999,-0.80141600
1.28511999,-0.80141600
1.28543999,-0.80141600
1.28575999,-0.80141600
1.28607999,-0.80141600
1.28639999,-0.80141600
1.28671999,-0.80141600
1.28703999,-0.80141600
1.28735999,-0.80141600
1.28767999,-0.80141600
1.28799999,-0.80141600
1.28831999,-0.89053010
1.28863999,-0.80141600
1.28895999,-0.80141600
1.28927999,-0.80141600
1.28959999,-0.80141600
1.28991999,-0.80141600
1.29023999,-0.80141600
1.29055999,-0.80141600
1.29087999,-0.80141600
1.29119999,-0.80141600
1.29151999,-0.80141600
1.29183999,-0.80141600
1.29215999,-0.80141600
1.29247999,-0.89053010
1.29279999,-0.89053010
1.29311999,-0.80141600
1.29343999,-0.80141600
1.29375999,-0.89053010
1.29407999,-0.89053010
1.29439999,-0.80141600
1.29471999,-0.89053010
1.29503999,-0.89053010
1.29535999,-0.89053010
1.29567999,-0.89053010
1.29599999,-0.80141600
1.29631999,-0.80141600
1.29663999,-0.89053010
1.29695999,-0.89053010
1.29727999,-0.80141600
1.29759999,-0.89053010
1.29791999,-0.80141600
1.29823999,-0.80141600
1.29855999,-0.80141600
1.29887999,-0.89053010
1.29919999,-0.89053010
1.29951999,-0.80141600
1.29983999,-0.89053010
1.30015999,-0.89053010
1.30047999,-0.89053010
1.30079999,-0.80141600
1.30111999,-0.89053010
1.30143999,-0.80141600
1.30175999,-0.80141600
1.30207999,-0.89053010
1.30239999,-0.80141600
1.30271999,-0.89053010
1.30303999,-0.89053010
1.30335999,-0.89053010
1.30367999,-0.89053010
1.30399999,-0.89053010
1.30431999,-0.89053010
1.30463999,-0.80141600
1.30495999,-0.89053010
1.30527999,-0.89053010
1.30559999,-0.80141600
1.30591999,-0.80141600
1.30623999,-0.80141600
1.30655999,-0.89053010
1.30687999,-0.89053010
1.30719999,-0.89053010
1.30751999,-0.89053010
1.30783999,-0.89053010
1.30815999,-0.89053010
1.30847999,-0.89053010
1.30879999,-0.89053010
1.30911999,-0.89053010
1.30943999,-0.89053010
1.30975999,-0.89053010
1.31007999,-0.89053010
1.31039999,-0.89053010
1.31071999,-0.89053010
1.31103999,-0.89053010
1.31135999,-0.89053010
1.31167999,-0.89053010
1.31199999,-0.89053010
1.31231999,-0.89053010
1.31263999,-0.89053010
1.31295999,-0.89053010
1.31327999,-0.89053010
1.31359999,-0.89053010
1.31391999,-0.89053010
1.31423999,-0.89053010
1.31455999,-0.89053010
1.31487999,-0.89053010
1.31519999,-0.89053010
1.31551999,-0.89053010
1.31583999,-0.89053010
1.31615999,-0.97964420
1.31647999,-0.97964420
1.31679999,-0.97964420
1.31711999,-0.89053010
1.31743999,-0.97964420
1.31775999,-0.97964420
1.31807999,-0.89053010
1.31839999,-0.97964420
1.31871999,-0.89053010
1.31903999,-0.97964420
1.31935999,-0.97964420
1.31967999,-0.97964420
1.31999999,-0.89053010
1.32031999,-0.97964420
1.32063999,-0.89053010
1.32095999,-0.89053010
1.32127999,-0.89053010
1.32159999,-0.97964420
1.32191999,-0.89053010
1.32223999,-0.89053010
1.32255999,-0.89053010
1.32287999,-0.97964420
1.32319999,-0.89053010
1.32351999,-0.97964420
1.32383999,-0.89053010
1.32415999,-0.97964420
1.32447999,-0.97964420
1.32479999,-0.97964420
1.32511999,-0.89053010
1.32543999,-0.97964420
1.32575999,-0.97964420
1.32607999,-0.97964420
1.32639999,-0.97964420
1.32671999,-0.97964420
1.32703999,-0.97964420
1.32735999,-0.97964420
1.32767999,-0.89053010
1.32799999,-0.97964420
1.32831999,-0.97964420
1.32863999,-0.97964420
1.32895999,-0.97964420
1.32927999,-0.89053010
1.32959999,-0.89053010
1.32991999,-0.97964420
1.33023999,-0.97964420
1.33055999,-0.97964420
1.33087999,-0.97964420
1.33119999,-0.89053010
1.33151999,-0.97964420
1.33183999,-0.97964420
1.33215999,-0.97964420
1.33247999,-0.97964420
1.33279999,-0.97964420
1.33311999,-0.97964420
1.33343999,-0.97964420
1.33375999,-0.97964420
1.33407999,-0.97964420
1.33439999,-0.97964420
1.33471999,-0.97964420
1.33503999,-0.97964420
1.33535999,-0.97964420
1.33567999,-0.97964420
1.33599999,-0.97964420
1.33631999,-0.97964420
1.33663999,-0.97964420
1.33695999,-0.97964420
1.33727999,-0.97964420
1.33759999,-0.97964420
1.33791999,-0.97964420
1.33823999,-0.97964420
1.33855999,-0.97964420
1.33887999,-0.97964420
1.33919999,-0.97964420
1.33951999,-0.97964420
1.33983999,-0.97964420
1.34015999,-0.97964420
1.34047999,-0.97964420
1.34079999,-0.97964420
1.34111999,-0.97964420
1.34143999,-0.97964420
1.34175999,-0.97964420
1.34207999,-0.97964420
1.34239999,-0.97964420
1.34271999,-0.97964420
1.34303999,-0.97964420
1.34335999,-0.97964420
1.34367999,-0.97964420
1.34399999,-0.97964420
1.34431999,-0.97964420
1.34463999,-0.97964420
1.34495999,-0.97964420
1.34527999,-0.97964420
1.34559999,-0.97964420
1.34591999,-0.97964420
1.34623999,-0.97964420
1.34655999,-0.97964420
1.34687999,-0.97964420
1.34719999,-0.97964420
1.34751999,-0.97964420
1.34783999,-0.97964420
1.34815999,-0.97964420
1.34847999,-0.97964420
1.34879999,-0.97964420
1.34911999,-0.97964420
1.34943999,-0.97964420
1.34975999,-0.89053010
1.35007999,-0.97964420
1.35039999,-0.89053010
1.35071999,-0.97964420
1.35103999,-0.97964420
1.35135999,-0.97964420
1.35167999,-0.97964420
1.35199999,-0.97964420
1.35231999,-0.97964420
1.35263999,-0.89053010
1.35295999,-0.97964420
1.35327999,-0.89053010
1.35359999,-0.97964420
1.35391999,-0.97964420
1.35423999,-0.97964420
1.35455999,-0.97964420
1.35487999,-0.97964420
1.35519999,-0.97964420
1.35551999,-0.89053010
1.35583999,-0.97964420
1.35615999,-0.89053010
1.35647999,-0.97964420
1.35679999,-0.97964420
1.35711999,-0.97964420
1.35743999,-0.89053010
1.35775999,-0.97964420
1.35807999,-0.97964420
1.35839999,-0.97964420
1.35871999,-0.97964420
1.35903999,-0.97964420
1.35935999,-0.89053010
1.35967999,-0.97964420
1.35999999,-0.89053010
1.36031999,-0.97964420
1.36063999,-0.89053010
1.36095999,-0.89053010
1.36127999,-0.97964420
1.36159999,-0.89053010
1.36191999,-0.89053010
1.36223999,-0.97964420
1.36255999,-0.97964420
1.36287999,-0.89053010
1.36319999,-0.97964420
1.36351999,-0.97964420
1.36383999,-0.89053010
1.36415999,-0.89053010
1.36447999,-0.89053010
1.36479999,-0.89053010
1.36511999,-0.89053010
1.36543999,-0.89053010
1.36575999,-0.89053010
1.36607999,-0.89053010
1.36639999,-0.89053010
1.36671999,-0.89053010
1.36703999,-0.89053010
1.36735999,-0.89053010
1.36767999,-0.97964420
1.36799999,-0.89053010
1.36831999,-0.97964420
1.36863999,-0.97964420
1.36895999,-0.89053010
1.36927999,-0.89053010
1.36959999,-0.89053010
1.36991999,-0.89053010
1.37023999,-0.89053010
1.37055999,-0.89053010
1.37087999,-0.89053010
1.37119999,-0.89053010
1.37151999,-0.89053010
1.37183999,-0.89053010
1.37215999,-0.89053010
1.37247999,-0.89053010
1.37279999,-0.89053010
1.37311999,-0.89053010
1.37343999,-0.89053010
1.37375999,-0.89053010
1.37407999,-0.89053010
1.37439999,-0.89053010
1.37471999,-0.89053010
1.37503999,-0.89053010
1.37535999,-0.89053010
1.37567999,-0.89053010
1.37599999,-0.89053010
1.37631999,-0.89053010
1.37663999,-0.89053010
1.37695999,-0.89053010
1.37727999,-0.89053010
1.37759999,-0.89053010
1.37791999,-0.89053010
1.37823999,-0.89053010
1.37855999,-0.89053010
1.37887999,-0.89053010
1.37919999,-0.89053010
1.37951999,-0.89053010
1.37983999,-0.89053010
1.38015999,-0.89053010
1.38047999,-0.89053010
1.38079999,-0.89053010
1.38111999,-0.89053010
1.38143999,-0.89053010
1.38175999,-0.89053010
1.38207999,-0.89053010
1.38239999,-0.89053010
1.38271999,-0.80141600
1.38303999,-0.89053010
1.38335999,-0.89053010
1.38367999,-0.89053010
1.38399999,-0.89053010
1.38431999,-0.89053010
1.38463999,-0.89053010
1.38495999,-0.89053010
1.38527999,-0.89053010
1.38559999,-0.89053010
1.38591999,-0.89053010
1.38623999,-0.89053010
1.38655999,-0.80141600
1.38687999,-0.89053010
1.38719999,-0.80141600
1.38751999,-0.80141600
1.38783999,-0.80141600
1.38815999,-0.80141600
1.38847999,-0.89053010
1.38879999,-0.89053010
1.38911999,-0.80141600
1.38943999,-0.80141600
1.38975999,-0.80141600
1.39007999,-0.80141600
1.39039999,-0.80141600
1.39071999,-0.80141600
1.39103999,-0.80141600
1.39135999,-0.80141600
1.39167999,-0.80141600
1.39199999,-0.80141600
1.39231999,-0.80141600
1.39263999,-0.80141600
1.39295999,-0.80141600
1.39327999,-0.80141600
1.39359999,-0.80141600
1.39391999,-0.80141600
1.39423999,-0.80141600
1.39455999,-0.80141600
1.39487999,-0.80141600
1.39519999,-0.80141600
1.39551999,-0.80141600
1.39583999,-0.80141600
1.39615999,-0.80141600
1.39647999,-0.80141600
1.39679999,-0.80141600
1.39711999,-0.80141600
1.39743999,-0.80141600
1.39775999,-0.80141600
1.39807999,-0.80141600
1.39839999,-0.80141600
1.39871999,-0.80141600
1.39903999,-0.80141600
1.39935999,-0.80141600
1.39967999,-0.80141600
1.39999999,-0.80141600
1.40031999,-0.80141600
1.40063999,-0.80141600
1.40095999,-0.80141600
1.40127999,-0.80141600
1.40159999,-0.80141600
1.40191999,-0.80141600
1.40223999,-0.80141600
1.40255999,-0.80141600
1.40287999,-0.80141600
1.40319999,-0.80141600
1.40351999,-0.80141600
1.40383999,-0.80141600
1.40415999,-0.80141600
1.40447999,-0.80141600
1.40479999,-0.80141600
1.40511999,-0.80141600
1.40543999,-0.80141600
1.40575999,-0.80141600
1.40607999,-0.80141600
1.40639999,-0.80141600
1.40671999,-0.80141600
1.40703999,-0.80141600
1.40735999,-0.80141600
1.40767999,-0.80141600
1.40799999,-0.80141600
1.40831999,-0.80141600
1.40863999,-0.80141600
1.40895999,-0.80141600
1.40927999,-0.80141600
1.40959999,-0.80141600
1.40991999,-0.80141600
1.41023999,-0.80141600
1.41055999,-0.80141600
1.41087999,-0.80141600
1.41119999,-0.80141600
1.41151999,-0.80141600
1.41183999,-0.80141600
1.41215999,-0.80141600
1.41247999,-0.80141600
1.41279999,-0.80141600
1.41311999,-0.80141600
1.41343999,-0.80141600
1.41375999,-0.80141600
1.41407999,-0.80141600
1.41439999,-0.80141600
1.41471999,-0.80141600
1.41503999,-0.80141600
1.41535999,-0.80141600
1.41567999,-0.80141600
1.41599999,-0.80141600
1.41631999,-0.80141600
1.41663999,-0.80141600
1.41695999,-0.80141600
1.41727999,-0.80141600
1.41759999,-0.80141600
1.41791999,-0.80141600
1.41823999,-0.80141600
1.41855999,-0.80141600
1.41887999,-0.80141600
1.41919999,-0.80141600
1.41951999,-0.80141600
1.41983999,-0.80141600
1.42015999,-0.80141600
1.42047999,-0.80141600
1.42079999,-0.80141600
1.42111999,-0.80141600
1.42143999,-0.80141600
1.42175999,-0.80141600
1.42207999,-0.80141600
1.42239999,-0.80141600
1.42271999,-0.80141600
1.42303999,-0.80141600
1.42335999,-0.80141600
1.42367999,-0.80141600
1.42399999,-0.89053010
1.42431999,-0.80141600
1.42463999,-0.80141600
1.42495999,-0.80141600
1.42527999,-0.80141600
1.42559999,-0.89053010
1.42591999,-0.80141600
1.42623999,-0.80141600
1.42655999,-0.80141600
1.42687999,-0.80141600
1.42719999,-0.89053010
1.42751999,-0.80141600
1.42783999,-0.89053010
1.42815999,-0.80141600
1.42847999,-0.80141600
1.42879999,-0.80141600
1.42911999,-0.89053010
1.42943999,-0.80141600
1.42975999,-0.89053010
1.43007999,-0.89053010
1.43039999,-0.89053010
1.43071999,-0.89053010
1.43103999,-0.89053010
1.43135999,-0.89053010
1.43167999,-0.89053010
1.43199999,-0.89053010
1.43231999,-0.89053010
1.43263999,-0.89053010
1.43295999,-0.89053010
1.43327999,-0.89053010
1.43359999,-0.89053010
1.43391999,-0.89053010
1.43423999,-0.89053010
1.43455999,-0.89053010
1.43487999,-0.89053010
1.43519999,-0.89053010
1.43551999,-0.89053010
1.43583999,-0.89053010
1.43615999,-0.89053010
1.43647999,-0.97964420
1.43679999,-0.97964420
1.43711999,-0.89053010
1.43743999,-0.97964420
1.43775999,-0.97964420
1.43807999,-0.89053010
1.43839999,-0.89053010
1.43871999,-0.89053010
1.43903999,-0.97964420
1.43935999,-0.97964420
1.43967999,-0.97964420
1.43999999,-0.97964420
1.44031999,-0.89053010
1.44063999,-0.97964420
1.44095999,-0.97964420
1.44127999,-0.97964420
1.44159999,-0.97964420
1.44191999,-0.97964420
1.44223999,-0.97964420
1.44255999,-0.97964420
1.44287999,-0.97964420
1.44319999,-0.97964420
1.44351999,-0.97964420
1.44383999,-0.97964420
1.44415999,-0.97964420
1.44447999,-0.97964420
1.44479999,-0.97964420
1.44511999,-0.97964420
1.44543999,-0.97964420
1.44575999,-0.97964420
1.44607999,-0.97964420
1.44639999,-0.97964420
1.44671999,-0.97964420
1.44703999,-0.97964420
1.44735999,-0.97964420
1.44767999,-0.97964420
1.44799999,-0.97964420
1.44831999,-0.97964420
1.44863999,-0.97964420
1.44895999,-0.97964420
1.44927999,-0.97964420
1.44959999,-0.97964420
1.44991999,-0.97964420
1.45023999,-0.97964420
1.45055999,-0.97964420
1.45087999,-0.97964420
1.45119999,-0.97964420
1.45151999,-0.97964420
1.45183999,-0.97964420
1.45215999,-0.97964420
1.45247999,-1.06875800
1.45279999,-0.97964420
1.45311999,-0.97964420
1.45343999,-0.97964420
1.45375999,-0.97964420
1.45407999,-1.06875800
1.45439999,-1.06875800
1.45471999,-1.06875800
1.45503999,-1.06875800
1.45535999,-1.06875800
1.45567999,-0.97964420
1.45599999,-0.97964420
1.45631999,-1.06875800
1.45663999,-1.06875800
1.45695999,-0.97964420
1.45727999,-1.06875800
1.45759999,-1.06875800
1.45791999,-1.06875800
1.45823999,-1.06875800
1.45855999,-1.06875800
1.45887999,-1.06875800
1.45919999,-0.97964420
1.45951999,-1.06875800
1.45983999,-1.06875800
1.46015999,-1.06875800
1.46047999,-1.06875800
1.46079999,-1.06875800
1.46111999,-1.06875800
1.46143999,-1.06875800
1.46175999,-0.97964420
1.46207999,-1.06875800
1.46239999,-1.06875800
1.46271999,-1.06875800
1.46303999,-1.06875800
1.46335999,-1.06875800
1.46367999,-1.06875800
1.46399999,-1.06875800
1.46431999,-1.06875800
1.46463999,-1.06875800
1.46495999,-1.06875800
1.46527999,-1.06875800
1.46559999,-0.97964420
1.46591999,-1.06875800
1.46623999,-0.97964420
1.46655999,-1.06875800
1.46687999,-1.06875800
1.46719999,-1.15787200
1.46751999,-1.06875800
1.46783999,-1.15787200
1.46815999,-1.06875800
1.46847999,-1.06875800
1.46879999,-1.06875800
1.46911999,-1.06875800
1.46943999,-1.15787200
1.46975999,-1.15787200
1.47007999,-1.06875800
1.47039999,-1.06875800
1.47071999,-1.15787200
1.47103999,-1.06875800
1.47135999,-1.06875800
1.47167999,-1.06875800
1.47199999,-1.15787200
1.47231999,-1.15787200
1.47263999,-1.06875800
1.47295999,-1.06875800
1.47327999,-1.06875800
1.47359999,-1.15787200
1.47391999,-1.06875800
1.47423999,-1.06875800
1.47455999,-1.15787200
1.47487999,-1.06875800
1.47519999,-1.06875800
1.47551999,-1.06875800
1.47583999,-1.06875800
1.47615999,-1.15787200
1.47647999,-1.06875800
1.47679999,-1.06875800
1.47711999,-1.15787200
1.47743999,-1.15787200
1.47775999,-1.06875800
1.47807999,-1.06875800
1.47839999,-1.06875800
1.47871999,-1.15787200
1.47903999,-1.06875800
1.47935999,-1.06875800
1.47967999,-1.06875800
1.47999999,-1.15787200
1.48031999,-1.06875800
1.48063999,-1.06875800
1.48095999,-1.06875800
1.48127999,-1.15787200
1.48159999,-1.06875800
1.48191999,-1.15787200
1.48223999,-1.06875800
1.48255999,-1.15787200
1.48287999,-1.06875800
1.48319999,-1.06875800
1.48351999,-1.06875800
1.48383999,-1.15787200
1.48415999,-1.15787200
1.48447999,-1.15787200
1.48479999,-1.15787200
1.48511999,-1.15787200
1.48543999,-1.15787200
1.48575999,-1.15787200
1.48607999,-1.15787200
1.48639999,-1.15787200
1.48671999,-1.06875800
1.48703999,-1.06875800
1.48735999,-1.15787200
1.48767999,-1.15787200
1.48799999,-1.06875800
1.48831999,-1.15787200
1.48863999,-1.15787200
1.48895999,-1.15787200
1.48927999,-1.15787200
1.48959999,-1.06875800
1.48991999,-1.15787200
1.49023999,-1.06875800
1.49055999,-1.06875800
1.49087999,-1.15787200
1.49119999,-1.15787200
1.49151999,-1.15787200
1.49183999,-1.06875800
1.49215999,-1.06875800
1.49247999,-1.15787200
1.49279999,-1.15787200
1.49311999,-1.15787200
1.49343999,-1.06875800
1.49375999,-1.06875800
1.49407999,-1.06875800
1.49439999,-1.06875800
1.49471999,-1.06875800
1.49503999,-1.06875800
1.49535999,-1.15787200
1.49567999,-1.06875800
1.49599999,-1.06875800
1.49631999,-1.15787200
1.49663999,-1.06875800
1.49695999,-1.06875800
1.49727999,-1.06875800
1.49759999,-1.06875800
1.49791999,-1.15787200
1.49823999,-1.15787200
1.49855999,-1.15787200
1.49887999,-1.06875800
1.49919999,-1.15787200
1.49951999,-1.15787200
1.49983999,-1.06875800
1.50015999,-1.15787200
1.50047999,-1.15787200
1.50079999,-1.06875800
1.50111999,-1.06875800
1.50143999,-1.15787200
1.50175999,-1.15787200
1.50207999,-1.15787200
1.50239999,-1.15787200
1.50271999,-1.15787200
1.50303999,-1.15787200
1.50335999,-1.15787200
1.50367999,-1.15787200
1.50399999,-1.15787200
1.50431999,-1.15787200
1.50463999,-1.15787200
1.50495999,-1.15787200
1.50527999,-1.15787200
1.50559999,-1.15787200
1.50591999,-1.15787200
1.50623999,-1.15787200
1.50655999,-1.15787200
1.50687999,-1.15787200
1.50719999,-1.15787200
1.50751999,-1.15787200
1.50783999,-1.15787200
1.50815999,-1.15787200
1.50847999,-1.15787200
1.50879999,-1.15787200
1.50911999,-1.15787200
1.50943999,-1.15787200
1.50975999,-1.15787200
1.51007999,-1.15787200
1.51039999,-1.15787200
1.51071999,-1.15787200
1.51103999,-1.15787200
1.51135999,-1.15787200
1.51167999,-1.15787200
1.51199999,-1.15787200
1.51231999,-1.15787200
1.51263999,-1.24698600
1.51295999,-1.15787200
1.51327999,-1.15787200
1.51359999,-1.15787200
1.51391999,-1.15787200
1.51423999,-1.15787200
1.51455999,-1.24698600
1.51487999,-1.24698600
1.51519999,-1.24698600
1.51551999,-1.24698600
1.51583999,-1.24698600
1.51615999,-1.24698600
1.51647999,-1.24698600
1.51679999,-1.24698600
1.51711999,-1.24698600
1.51743999,-1.24698600
1.51775999,-1.24698600
1.51807999,-1.24698600
1.51839999,-1.24698600
1.51871999,-1.24698600
1.51903999,-1.24698600
1.51935999,-1.24698600
1.51967999,-1.24698600
1.51999999,-1.24698600
1.52031999,-1.33610000
1.52063999,-1.24698600
1.52095999,-1.24698600
1.52127999,-1.24698600
1.52159999,-1.33610000
1.52191999,-1.24698600
1.52223999,-1.33610000
1.52255999,-1.24698600
1.52287999,-1.33610000
1.52319999,-1.24698600
1.52351999,-1.33610000
1.52383999,-1.24698600
1.52415999,-1.33610000
1.52447999,-1.33610000
1.52479999,-1.33610000
1.52511999,-1.33610000
1.52543999,-1.33610000
1.52575999,-1.33610000
1.52607999,-1.24698600
1.52639999,-1.33610000
1.52671999,-1.33610000
1.52703999,-1.33610000
1.52735999,-1.33610000
1.52767999,-1.33610000
1.52799999,-1.33610000
1.52831999,-1.33610000
1.52863999,-1.33610000
1.52895999,-1.33610000
1.52927999,-1.33610000
1.52959999,-1.33610000
1.52991999,-1.33610000
1.53023999,-1.33610000
1.53055999,-1.33610000
1.53087999,-1.33610000
1.53119999,-1.33610000
1.53151999,-1.42521400
1.53183999,-1.33610000
1.53215999,-1.33610000
1.53247999,-1.33610000
1.53279999,-1.33610000
1.53311999,-1.33610000
1.53343999,-1.42521400
1.53375999,-1.33610000
1.53407999,-1.33610000
1.53439999,-1.33610000
1.53471999,-1.42521400
1.53503999,-1.33610000
1.53535999,-1.33610000
1.53567999,-1.33610000
1.53599999,-1.33610000
1.53631999,-1.33610000
1.53663999,-1.33610000
1.53695999,-1.33610000
1.53727999,-1.42521400
1.53759999,-1.42521400
1.53791999,-1.33610000
1.53823999,-1.33610000
1.53855999,-1.42521400
1.53887999,-1.42521400
1.53919999,-1.33610000
1.53951999,-1.33610000
1.53983999,-1.42521400
1.54015999,-1.33610000
1.54047999,-1.42521400
1.54079999,-1.33610000
1.54111999,-1.42521400
1.54143999,-1.33610000
1.54175999,-1.42521400
1.54207999,-1.42521400
1.54239999,-1.33610000
1.54271999,-1.42521400
1.54303999,-1.42521400
1.54335999,-1.42521400
1.54367999,-1.42521400
1.54399999,-1.42521400
1.54431999,-1.42521400
1.54463999,-1.42521400
1.54495999,-1.33610000
1.54527999,-1.42521400
1.54559999,-1.42521400
1.54591999,-1.42521400
1.54623999,-1.42521400
1.54655999,-1.42521400
1.54687999,-1.42521400
1.54719999,-1.42521400
1.54751999,-1.42521400
1.54783999,-1.42521400
1.54815999,-1.42521400
1.54847999,-1.42521400
1.54879999,-1.42521400
1.54911999,-1.42521400
1.54943999,-1.42521400
1.54975999,-1.42521400
1.55007999,-1.42521400
1.55039999,-1.42521400
1.55071999,-1.42521400
1.55103999,-1.42521400
1.55135999,-1.42521400
1.55167999,-1.42521400
1.55199999,-1.42521400
1.55231999,-1.42521400
1.55263999,-1.42521400
1.55295999,-1.42521400
1.55327999,-1.42521400
1.55359999,-1.42521400
1.55391999,-1.42521400
1.55423999,-1.42521400
1.55455999,-1.42521400
1.55487999,-1.42521400
1.55519999,-1.42521400
1.55551999,-1.42521400
1.55583999,-1.42521400
1.55615999,-1.42521400
1.55647999,-1.42521400
1.55679999,-1.42521400
1.55711999,-1.42521400
1.55743999,-1.42521400
1.55775999,-1.42521400
1.55807999,-1.42521400
1.55839999,-1.42521400
1.55871999,-1.42521400
1.55903999,-1.42521400
1.55935999,-1.42521400
1.55967999,-1.42521400
1.55999999,-1.42521400
1.56031999,-1.42521400
1.56063999,-1.42521400
1.56095999,-1.33610000
1.56127999,-1.33610000
1.56159999,-1.33610000
1.56191999,-1.33610000
1.56223999,-1.42521400
1.56255999,-1.42521400
1.56287999,-1.42521400
1.56319999,-1.33610000
1.56351999,-1.42521400
1.56383999,-1.33610000
1.56415999,-1.42521400
1.56447999,-1.33610000
1.56479999,-1.33610000
1.56511999,-1.33610000
1.56543999,-1.33610000
1.56575999,-1.33610000
1.56607999,-1.33610000
1.56639999,-1.33610000
1.56671999,-1.33610000
1.56703999,-1.33610000
1.56735999,-1.33610000
1.56767999,-1.33610000
1.56799999,-1.33610000
1.56831999,-1.33610000
1.56863999,-1.33610000
1.56895999,-1.33610000
1.56927999,-1.33610000
1.56959999,-1.33610000
1.56991999,-1.33610000
1.57023999,-1.33610000
1.57055999,-1.33610000
1.57087999,-1.33610000
1.57119999,-1.33610000
1.57151999,-1.33610000
1.57183999,-1.33610000
1.57215999,-1.33610000
1.57247999,-1.33610000
1.57279999,-1.33610000
1.57311999,-1.24698600
1.57343999,-1.33610000
1.57375999,-1.33610000
1.57407999,-1.24698600
1.57439999,-1.33610000
1.57471999,-1.33610000
1.57503999,-1.24698600
1.57535999,-1.24698600
1.57567999,-1.24698600
1.57599999,-1.24698600
1.57631999,-1.24698600
1.57663999,-1.24698600
1.57695999,-1.24698600
1.57727999,-1.24698600
1.57759999,-1.24698600
1.57791999,-1.24698600
1.57823999,-1.24698600
1.57855999,-1.24698600
1.57887999,-1.24698600
1.57919999,-1.24698600
1.57951999,-1.24698600
1.57983999,-1.24698600
1.58015999,-1.24698600
1.58047999,-1.24698600
1.58079999,-1.15787200
1.58111999,-1.24698600
1.58143999,-1.24698600
1.58175999,-1.24698600
1.58207999,-1.15787200
1.58239999,-1.15787200
1.58271999,-1.24698600
1.58303999,-1.15787200
1.58335999,-1.15787200
1.58367999,-1.24698600
1.58399999,-1.15787200
1.58431999,-1.24698600
1.58463999,-1.15787200
1.58495999,-1.15787200
1.58527999,-1.24698600
1.58559999,-1.15787200
1.58591999,-1.24698600
1.58623999,-1.15787200
1.58655999,-1.15787200
1.58687999,-1.24698600
1.58719999,-1.15787200
1.58751999,-1.15787200
1.58783999,-1.15787200
1.58815999,-1.15787200
1.58847999,-1.15787200
1.58879999,-1.15787200
1.58911999,-1.15787200
1.58943999,-1.15787200
1.58975999,-1.15787200
1.59007999,-1.15787200
1.59039999,-1.15787200
1.59071999,-1.15787200
1.59103999,-1.15787200
1.59135999,-1.15787200
1.59167999,-1.15787200
1.59199999,-1.15787200
1.59231999,-1.15787200
1.59263999,-1.15787200
1.59295999,-1.15787200
1.59327999,-1.15787200
1.59359999,-1.15787200
1.59391999,-1.06875800
1.59423999,-1.06875800
1.59455999,-1.15787200
1.59487999,-1.15787200
1.59519999,-1.06875800
1.59551999,-1.06875800
1.59583999,-1.06875800
1.59615999,-1.06875800
1.59647999,-1.06875800
1.59679999,-1.06875800
1.59711999,-1.06875800
1.59743999,-1.06875800
1.59775999,-1.06875800
1.59807999,-1.06875800
1.59839999,-1.06875800
1.59871999,-1.06875800
1.59903999,-1.06875800
1.59935999,-0.97964420
1.59967999,-1.06875800
1.59999999,-1.06875800
1.60031999,-1.06875800
1.60063999,-0.97964420
1.60095999,-0.97964420
1.60127999,-0.97964420
1.60159999,-0.97964420
1.60191999,-0.97964420
1.60223999,-0.97964420
1.60255999,-0.97964420
1.60287999,-0.97964420
1.60319999,-0.97964420
1.60351999,-0.97964420
1.60383999,-0.97964420
1.60415999,-0.97964420
1.60447999,-0.97964420
1.60479999,-0.97964420
1.60511999,-0.89053010
1.60543999,-0.97964420
1.60575999,-0.97964420
1.60607999,-0.89053010
1.60639999,-0.89053010
1.60671999,-0.89053010
1.60703999,-0.89053010
1.60735999,-0.89053010
1.60767999,-0.89053010
1.60799999,-0.89053010
1.60831999,-0.89053010
1.60863999,-0.89053010
1.60895999,-0.80141600
1.60927999,-0.80141600
1.60959999,-0.89053010
1.60991999,-0.80141600
1.61023999,-0.80141600
1.61055999,-0.80141600
1.61087999,-0.80141600
1.61119999,-0.80141600
1.61151999,-0.80141600
1.61183999,-0.80141600
1.61215999,-0.80141600
1.61247999,-0.80141600
1.61279999,-0.80141600
1.61311999,-0.80141600
1.61343999,-0.80141600
1.61375999,-0.80141600
1.61407999,-0.80141600
1.61439999,-0.80141600
1.61471999,-0.80141600
1.61503999,-0.80141600
1.61535999,-0.71230200
1.61567999,-0.80141600
1.61599999,-0.80141600
1.61631999,-0.80141600
1.61663999,-0.71230200
1.61695999,-0.71230200
1.61727999,-0.71230200
1.61759999,-0.71230200
1.61791999,-0.71230200
1.61823999,-0.71230200
1.61855999,-0.71230200
1.61887999,-0.71230200
1.61919999,-0.71230200
1.61951999,-0.71230200
1.61983999,-0.71230200
1.62015999,-0.71230200
1.62047999,-0.71230200
1.62079999,-0.71230200
1.62111999,-0.71230200
1.62143999,-0.71230200
1.62175999,-0.71230200
1.62207999,-0.71230200
1.62239999,-0.71230200
1.62271999,-0.71230200
1.62303999,-0.71230200
1.62335999,-0.71230200
1.62367999,-0.71230200
1.62399999,-0.71230200
1.62431999,-0.71230200
1.62463999,-0.62318800
1.62495999,-0.62318800
1.62527999,-0.71230200
1.62559999,-0.62318800
1.62591999,-0.71230200
1.62623999,-0.71230200
1.62655999,-0.62318800
1.62687999,-0.62318800
1.62719999,-0.62318800
1.62751999,-0.62318800
1.62783999,-0.62318800
1.62815999,-0.62318800
1.62847999,-0.62318800
1.62879999,-0.62318800
1.62911999,-0.71230200
1.62943999,-0.62318800
1.62975999,-0.62318800
1.63007999,-0.62318800
1.63039999,-0.62318800
1.63071999,-0.62318800
1.63103999,-0.62318800
1.63135999,-0.62318800
1.63167999,-0.62318800
1.63199999,-0.62318800
1.63231999,-0.62318800
1.63263999,-0.62318800
1.63295999,-0.62318800
1.63327999,-0.62318800
1.63359999,-0.62318800
1.63391999,-0.62318800
1.63423999,-0.62318800
1.63455999,-0.62318800
1.63487999,-0.62318800
1.63519999,-0.62318800
1.63551999,-0.53407390
1.63583999,-0.53407390
1.63615999,-0.53407390
1.63647999,-0.53407390
1.63679999,-0.53407390
1.63711999,-0.53407390
1.63743999,-0.53407390
1.63775999,-0.53407390
1.63807999,-0.53407390
1.63839999,-0.53407390
1.63871999,-0.53407390
1.63903999,-0.53407390
1.63935999,-0.53407390
1.63967999,-0.53407390
1.63999999,-0.53407390
1.64031999,-0.53407390
1.64063999,-0.44495990
1.64095999,-0.44495990
1.64127999,-0.44495990
1.64159999,-0.44495990
1.64191999,-0.44495990
1.64223999,-0.44495990
1.64255999,-0.44495990
1.64287999,-0.44495990
1.64319999,-0.44495990
1.64351999,-0.44495990
1.64383999,-0.44495990
1.64415999,-0.44495990
1.64447999,-0.44495990
1.64479999,-0.44495990
1.64511999,-0.44495990
1.64543999,-0.44495990
1.64575999,-0.44495990
1.64607999,-0.44495990
1.64639999,-0.44495990
1.64671999,-0.44495990
1.64703999,-0.44495990
1.64735999,-0.44495990
1.64767999,-0.44495990
1.64799999,-0.44495990
1.64831999,-0.44495990
1.64863999,-0.44495990
1.64895999,-0.44495990
1.64927999,-0.44495990
1.64959999,-0.44495990
1.64991999,-0.44495990
1.65023999,-0.44495990
1.65055999,-0.44495990
1.65087999,-0.44495990
1.65119999,-0.44495990
1.65151999,-0.44495990
1.65183999,-0.35584580
1.65215999,-0.44495990
1.65247999,-0.35584580
1.65279999,-0.44495990
1.65311999,-0.44495990
1.65343999,-0.35584580
1.65375999,-0.44495990
1.65407999,-0.44495990
1.65439999,-0.44495990
1.65471999,-0.44495990
1.65503999,-0.35584580
1.65535999,-0.44495990
1.65567999,-0.35584580
1.65599999,-0.44495990
1.65631999,-0.44495990
1.65663999,-0.44495990
1.65695999,-0.44495990
1.65727999,-0.44495990
1.65759999,-0.44495990
1.65791999,-0.44495990
1.65823999,-0.44495990
1.65855999,-0.44495990
1.65887999,-0.44495990
1.65919999,-0.44495990
1.65951999,-0.44495990
1.65983999,-0.44495990
1.66015999,-0.53407390
1.66047999,-0.53407390
1.66079999,-0.44495990
1.66111999,-0.53407390
1.66143999,-0.44495990
1.66175999,-0.44495990
1.66207999,-0.44495990
1.66239999,-0.53407390
1.66271999,-0.53407390
1.66303999,-0.53407390
1.66335999,-0.53407390
1.66367999,-0.53407390
1.66399999,-0.53407390
1.66431999,-0.53407390
1.66463999,-0.53407390
1.66495999,-0.53407390
1.66527999,-0.53407390
1.66559999,-0.62318800
1.66591999,-0.53407390
1.66623999,-0.53407390
1.66655999,-0.62318800
1.66687999,-0.53407390
1.66719999,-0.62318800
1.66751999,-0.62318800
1.66783999,-0.62318800
1.66815999,-0.62318800
1.66847999,-0.62318800
1.66879999,-0.62318800
1.66911999,-0.62318800
1.66943999,-0.62318800
1.66975999,-0.62318800
1.67007999,-0.62318800
1.67039999,-0.62318800
1.67071999,-0.62318800
1.67103999,-0.62318800
1.67135999,-0.62318800
1.67167999,-0.62318800
1.67199999,-0.62318800
1.67231999,-0.62318800
1.67263999,-0.62318800
1.67295999,-0.62318800
1.67327999,-0.71230200
1.67359999,-0.62318800
1.67391999,-0.62318800
1.67423999,-0.71230200
1.67455999,-0.62318800
1.67487999,-0.62318800
1.67519999,-0.62318800
1.67551999,-0.71230200
1.67583999,-0.62318800
1.67615999,-0.71230200
1.67647999,-0.62318800
1.67679999,-0.71230200
1.67711999,-0.71230200
1.67743999,-0.71230200
1.67775999,-0.71230200
1.67807999,-0.71230200
1.67839999,-0.71230200
1.67871999,-0.71230200
1.67903999,-0.71230200
1.67935999,-0.71230200
1.67967999,-0.71230200
1.67999999,-0.71230200
1.68031999,-0.71230200
1.68063999,-0.71230200
1.68095999,-0.71230200
1.68127999,-0.71230200
1.68159999,-0.71230200
1.68191999,-0.71230200
1.68223999,-0.71230200
1.68255999,-0.71230200
1.68287999,-0.80141600
1.68319999,-0.71230200
1.68351999,-0.71230200
1.68383999,-0.71230200
1.68415999,-0.71230200
1.68447999,-0.71230200
1.68479999,-0.71230200
1.68511999,-0.80141600
1.68543999,-0.80141600
1.68575999,-0.80141600
1.68607999,-0.71230200
1.68639999,-0.71230200
1.68671999,-0.71230200
1.68703999,-0.80141600
1.68735999,-0.80141600
1.68767999,-0.80141600
1.68799999,-0.80141600
1.68831999,-0.80141600
1.68863999,-0.80141600
1.68895999,-0.71230200
1.68927999,-0.80141600
1.68959999,-0.80141600
1.68991999,-0.80141600
1.69023999,-0.80141600
1.69055999,-0.80141600
1.69087999,-0.80141600
1.69119999,-0.80141600
1.69151999,-0.80141600
1.69183999,-0.80141600
1.69215999,-0.80141600
1.69247999,-0.80141600
1.69279999,-0.80141600
1.69311999,-0.80141600
1.69343999,-0.80141600
1.69375999,-0.80141600
1.69407999,-0.80141600
1.69439999,-0.80141600
1.69471999,-0.80141600
1.69503999,-0.80141600
1.69535999,-0.80141600
1.69567999,-0.80141600
1.69599999,-0.80141600
1.69631999,-0.80141600
1.69663999,-0.89053010
1.69695999,-0.89053010
1.69727999,-0.80141600
1.69759999,-0.80141600
1.69791999,-0.80141600
1.69823999,-0.80141600
1.69855999,-0.80141600
1.69887999,-0.80141600
1.69919999,-0.80141600
1.69951999,-0.80141600
1.69983999,-0.80141600
1.70015999,-0.89053010
1.70047999,-0.80141600
1.70079999,-0.80141600
1.70111999,-0.89053010
1.70143999,-0.89053010
1.70175999,-0.89053010
1.70207999,-0.89053010
1.70239999,-0.89053010
1.70271999,-0.89053010
1.70303999,-0.89053010
1.70335999,-0.89053010
1.70367999,-0.89053010
1.70399999,-0.89053010
1.70431999,-0.89053010
1.70463999,-0.89053010
1.70495999,-0.89053010
1.70527999,-0.89053010
1.70559999,-0.89053010
1.70591999,-0.89053010
1.70623999,-0.89053010
1.70655999,-0.89053010
1.70687999,-0.89053010
1.70719999,-0.89053010
1.70751999,-0.89053010
1.70783999,-0.89053010
1.70815999,-0.89053010
1.70847999,-0.89053010
1.70879999,-0.89053010
1.70911999,-0.89053010
1.70943999,-0.89053010
1.70975999,-0.89053010
1.71007999,-0.89053010
1.71039999,-0.89053010
1.71071999,-0.89053010
1.71103999,-0.89053010
1.71135999,-0.89053010
1.71167999,-0.89053010
1.71199999,-0.89053010
1.71231999,-0.89053010
1.71263999,-0.89053010
1.71295999,-0.89053010
1.71327999,-0.89053010
1.71359999,-0.97964420
1.71391999,-0.89053010
1.71423999,-0.89053010
1.71455999,-0.97964420
1.71487999,-0.89053010
1.71519999,-0.89053010
1.71551999,-0.97964420
1.71583999,-0.89053010
1.71615999,-0.89053010
1.71647999,-0.89053010
1.71679999,-0.89053010
1.71711999,-0.89053010
1.71743999,-0.89053010
1.71775999,-0.89053010
1.71807999,-0.89053010
1.71839999,-0.97964420
1.71871999,-0.89053010
1.71903999,-0.89053010
1.71935999,-0.89053010
1.71967999,-0.89053010
1.71999999,-0.89053010
1.72031999,-0.89053010
1.72063999,-0.89053010
1.72095999,-0.89053010
1.72127999,-0.89053010
1.72159999,-0.97964420
1.72191999,-0.89053010
1.72223999,-0.89053010
1.72255999,-0.89053010
1.72287999,-0.89053010
1.72319999,-0.89053010
1.72351999,-0.97964420
1.72383999,-0.89053010
1.72415999,-0.97964420
1.72447999,-0.89053010
1.72479999,-0.89053010
1.72511999,-0.97964420
1.72543999,-0.97964420
1.72575999,-0.89053010
1.72607999,-0.97964420
1.72639999,-0.97964420
1.72671999,-0.97964420
1.72703999,-0.97964420
1.72735999,-0.97964420
1.72767999,-0.97964420
1.72799999,-0.97964420
1.72831999,-0.97964420
1.72863999,-0.89053010
1.72895999,-0.97964420
1.72927999,-0.89053010
1.72959999,-0.97964420
1.72991999,-0.97964420
1.73023999,-0.97964420
1.73055999,-0.89053010
1.73087999,-0.97964420
1.73119999,-0.97964420
1.73151999,-0.97964420
1.73183999,-0.89053010
1.73215999,-0.89053010
1.73247999,-0.97964420
1.73279999,-0.97964420
1.73311999,-0.97964420
1.73343999,-0.97964420
1.73375999,-0.97964420
1.73407999,-0.97964420
1.73439999,-0.97964420
1.73471999,-0.97964420
1.73503999,-0.97964420
1.73535999,-0.97964420
1.73567999,-0.97964420
1.73599999,-0.97964420
1.73631999,-0.97964420
1.73663999,-0.97964420
1.73695999,-0.97964420
1.73727999,-0.97964420
1.73759999,-0.97964420
1.73791999,-0.97964420
1.73823999,-0.97964420
1.73855999,-0.97964420
1.73887999,-0.97964420
1.73919999,-0.97964420
1.73951999,-0.97964420
1.73983999,-0.97964420
1.74015999,-0.97964420
1.74047999,-0.97964420
1.74079999,-0.97964420
1.74111999,-0.97964420
1.74143999,-0.97964420
1.74175999,-0.97964420
1.74207999,-0.97964420
1.74239999,-0.97964420
1.74271999,-0.97964420
1.74303999,-0.97964420
1.74335999,-0.97964420
1.74367999,-0.97964420
1.74399999,-0.97964420
1.74431999,-0.97964420
1.74463999,-0.97964420
1.74495999,-0.97964420
1.74527999,-0.97964420
1.74559999,-0.97964420
1.74591999,-0.97964420
1.74623999,-0.97964420
1.74655999,-0.97964420
1.74687999,-0.97964420
1.74719999,-0.97964420
1.74751999,-0.97964420
1.74783999,-0.97964420
1.74815999,-0.97964420
1.74847999,-0.97964420
1.74879999,-0.97964420
1.74911999,-0.97964420
1.74943999,-0.97964420
1.74975999,-0.97964420
1.75007999,-0.97964420
1.75039999,-0.97964420
1.75071999,-0.97964420
1.75103999,-0.97964420
1.75135999,-0.97964420
1.75167999,-0.97964420
1.75199999,-0.97964420
1.75231999,-0.97964420
1.75263999,-0.97964420
1.75295999,-0.97964420
1.75327999,-0.97964420
1.75359999,-0.97964420
1.75391999,-0.97964420
1.75423999,-0.97964420
1.75455999,-0.97964420
1.75487999,-0.97964420
1.75519999,-0.97964420
1.75551999,-0.97964420
1.75583999,-0.97964420
1.75615999,-0.97964420
1.75647999,-0.97964420
1.75679999,-0.97964420
1.75711999,-0.97964420
1.75743999,-0.97964420
1.75775999,-0.97964420
1.75807999,-0.97964420
1.75839999,-0.97964420
1.75871999,-0.97964420
1.75903999,-0.97964420
1.75935999,-0.97964420
1.75967999,-0.97964420
1.75999999,-0.97964420
1.76031999,-0.97964420
1.76063999,-0.97964420
1.76095999,-0.97964420
1.76127999,-0.97964420
1.76159999,-0.97964420
1.76191999,-0.97964420
1.76223999,-0.97964420
1.76255999,-0.97964420
1.76287999,-0.97964420
1.76319999,-0.97964420
1.76351999,-0.97964420
1.76383999,-0.97964420
1.76415999,-0.97964420
1.76447999,-0.97964420
1.76479999,-0.97964420
1.76511999,-1.06875800
1.76543999,-0.97964420
1.76575999,-0.97964420
1.76607999,-1.06875800
1.76639999,-0.97964420
1.76671999,-0.97964420
1.76703999,-0.97964420
1.76735999,-0.97964420
1.76767999,-0.97964420
1.76799999,-0.97964420
1.76831999,-0.97964420
1.76863999,-1.06875800
1.76895999,-0.97964420
1.76927999,-0.97964420
1.76959999,-1.06875800
1.76991999,-0.97964420
1.77023999,-1.06875800
1.77055999,-1.06875800
1.77087999,-1.06875800
1.77119999,-0.97964420
1.77151999,-1.06875800
1.77183999,-0.97964420
1.77215999,-0.97964420
1.77247999,-0.97964420
1.77279999,-0.97964420
1.77311999,-0.97964420
1.77343999,-1.06875800
1.77375999,-1.06875800
1.77407999,-0.97964420
1.77439999,-1.06875800
1.77471999,-0.97964420
1.77503999,-1.06875800
1.77535999,-0.97964420
1.77567999,-1.06875800
1.77599999,-1.06875800
1.77631999,-1.06875800
1.77663999,-1.06875800
1.77695999,-1.06875800
1.77727999,-0.97964420
1.77759999,-1.06875800
1.77791999,-0.97964420
1.77823999,-1.06875800
1.77855999,-1.06875800
1.77887999,-1.06875800
1.77919999,-1.06875800
1.77951999,-0.97964420
1.77983999,-0.97964420
1.78015999,-1.06875800
1.78047999,-0.97964420
1.78079999,-1.06875800
1.78111999,-0.97964420
1.78143999,-1.06875800
1.78175999,-1.06875800
1.78207999,-1.06875800
1.78239999,-0.97964420
1.78271999,-1.06875800
1.78303999,-1.06875800
1.78335999,-1.06875800
1.78367999,-1.06875800
1.78399999,-1.06875800
1.78431999,-1.06875800
1.78463999,-1.06875800
1.78495999,-1.06875800
1.78527999,-1.06875800
1.78559999,-1.06875800
1.78591999,-1.06875800
1.78623999,-1.06875800
1.78655999,-1.06875800
1.78687999,-1.15787200
1.78719999,-1.15787200
1.78751999,-1.06875800
1.78783999,-1.06875800
1.78815999,-1.06875800
1.78847999,-1.15787200
1.78879999,-1.06875800
1.78911999,-1.15787200
1.78943999,-1.06875800
1.78975999,-1.06875800
1.79007999,-1.06875800
1.79039999,-1.15787200
1.79071999,-1.15787200
1.79103999,-1.06875800
1.79135999,-1.06875800
1.79167999,-1.06875800
1.79199999,-1.06875800
1.79231999,-1.06875800
1.79263999,-1.06875800
1.79295999,-1.06875800
1.79327999,-1.15787200
1.79359999,-1.15787200
1.79391999,-1.15787200
1.79423999,-1.15787200
1.79455999,-1.15787200
1.79487999,-1.15787200
1.79519999,-1.06875800
1.79551999,-1.06875800
1.79583999,-1.15787200
1.79615999,-1.15787200
1.79647999,-1.15787200
1.79679999,-1.15787200
1.79711999,-1.15787200
1.79743999,-1.15787200
1.79775999,-1.06875800
1.79807999,-1.15787200
1.79839999,-1.15787200
1.79871999,-1.15787200
1.79903999,-1.15787200
1.79935999,-1.15787200
1.79967999,-1.15787200
1.79999999,-1.15787200
1.80031999,-1.15787200
1.80063999,-1.15787200
1.80095999,-1.15787200
1.80127999,-1.15787200
1.80159999,-1.15787200
1.80191999,-1.15787200
1.80223999,-1.15787200
1.80255999,-1.06875800
1.80287999,-1.15787200
1.80319999,-1.15787200
1.80351999,-1.15787200
1.80383999,-1.15787200
1.80415999,-1.15787200
1.80447999,-1.15787200
1.80479999,-1.15787200
1.80511999,-1.15787200
1.80543999,-1.15787200
1.80575999,-1.15787200
1.80607999,-1.15787200
1.80639999,-1.15787200
1.80671999,-1.15787200
1.80703999,-1.15787200
1.80735999,-1.15787200
1.80767999,-1.15787200
1.80799999,-1.15787200
1.80831999,-1.15787200
1.80863999,-1.15787200
1.80895999,-1.15787200
1.80927999,-1.15787200
1.80959999,-1.15787200
1.80991999,-1.15787200
1.81023999,-1.15787200
1.81055999,-1.15787200
1.81087999,-1.15787200
1.81119999,-1.15787200
1.81151999,-1.15787200
1.81183999,-1.15787200
1.81215999,-1.15787200
1.81247999,-1.24698600
1.81279999,-1.15787200
1.81311999,-1.24698600
1.81343999,-1.15787200
1.81375999,-1.15787200
1.81407999,-1.15787200
1.81439999,-1.15787200
1.81471999,-1.15787200
1.81503999,-1.15787200
1.81535999,-1.15787200
1.81567999,-1.24698600
1.81599999,-1.15787200
1.81631999,-1.24698600
1.81663999,-1.15787200
1.81695999,-1.24698600
1.81727999,-1.15787200
1.81759999,-1.15787200
1.81791999,-1.24698600
1.81823999,-1.24698600
1.81855999,-1.24698600
1.81887999,-1.15787200
1.81919999,-1.24698600
1.81951999,-1.24698600
1.81983999,-1.24698600
1.82015999,-1.24698600
1.82047999,-1.24698600
1.82079999,-1.24698600
1.82111999,-1.24698600
1.82143999,-1.24698600
1.82175999,-1.15787200
1.82207999,-1.15787200
1.82239999,-1.24698600
1.82271999,-1.24698600
1.82303999,-1.24698600
1.82335999,-1.24698600
1.82367999,-1.24698600
1.82399999,-1.24698600
1.82431999,-1.24698600
1.82463999,-1.24698600
1.82495999,-1.24698600
1.82527999,-1.24698600
1.82559999,-1.24698600
1.82591999,-1.24698600
1.82623999,-1.24698600
1.82655999,-1.24698600
1.82687999,-1.24698600
1.82719999,-1.24698600
1.82751999,-1.24698600
1.82783999,-1.24698600
1.82815999,-1.33610000
1.82847999,-1.24698600
1.82879999,-1.24698600
1.82911999,-1.24698600
1.82943999,-1.24698600
1.82975999,-1.33610000
1.83007999,-1.24698600
1.83039999,-1.24698600
1.83071999,-1.24698600
1.83103999,-1.33610000
1.83135999,-1.33610000
1.83167999,-1.24698600
1.83199999,-1.33610000
1.83231999,-1.24698600
1.83263999,-1.33610000
1.83295999,-1.24698600
1.83327999,-1.24698600
1.83359999,-1.33610000
1.83391999,-1.33610000
1.83423999,-1.24698600
1.83455999,-1.24698600
1.83487999,-1.24698600
1.83519999,-1.33610000
1.83551999,-1.33610000
1.83583999,-1.24698600
1.83615999,-1.33610000
1.83647999,-1.33610000
1.83679999,-1.33610000
1.83711999,-1.24698600
1.83743999,-1.33610000
1.83775999,-1.33610000
1.83807999,-1.33610000
1.83839999,-1.33610000
1.83871999,-1.33610000
1.83903999,-1.24698600
1.83935999,-1.33610000
1.83967999,-1.33610000
1.83999999,-1.24698600
1.84031999,-1.33610000
1.84063999,-1.33610000
1.84095999,-1.24698600
1.84127999,-1.33610000
1.84159999,-1.33610000
1.84191999,-1.33610000
1.84223999,-1.33610000
1.84255999,-1.24698600
1.84287999,-1.33610000
1.84319999,-1.33610000
1.84351999,-1.33610000
1.84383999,-1.33610000
1.84415999,-1.33610000
1.84447999,-1.33610000
1.84479999,-1.33610000
1.84511999,-1.33610000
1.84543999,-1.33610000
1.84575999,-1.33610000
1.84607999,-1.33610000
1.84639999,-1.33610000
1.84671999,-1.33610000
1.84703999,-1.33610000
1.84735999,-1.33610000
1.84767999,-1.33610000
1.84799999,-1.33610000
1.84831999,-1.33610000
1.84863999,-1.33610000
1.84895999,-1.33610000
1.84927999,-1.33610000
1.84959999,-1.33610000
1.84991999,-1.33610000
1.85023999,-1.33610000
1.85055999,-1.33610000
1.85087999,-1.33610000
1.85119999,-1.33610000
1.85151999,-1.33610000
1.85183999,-1.33610000
1.85215999,-1.33610000
1.85247999,-1.33610000
1.85279999,-1.33610000
1.85311999,-1.33610000
1.85343999,-1.33610000
1.85375999,-1.33610000
1.85407999,-1.33610000
1.85439999,-1.33610000
1.85471999,-1.33610000
1.85503999,-1.33610000
1.85535999,-1.33610000
1.85567999,-1.33610000
1.85599999,-1.33610000
1.85631999,-1.33610000
1.85663999,-1.33610000
1.85695999,-1.33610000
1.85727999,-1.33610000
1.85759999,-1.33610000
1.85791999,-1.33610000
1.85823999,-1.33610000
1.85855999,-1.33610000
1.85887999,-1.42521400
1.85919999,-1.33610000
1.85951999,-1.33610000
1.85983999,-1.33610000
1.86015999,-1.33610000
1.86047999,-1.33610000
1.86079999,-1.33610000
1.86111999,-1.33610000
1.86143999,-1.33610000
1.86175999,-1.33610000
1.86207999,-1.33610000
1.86239999,-1.33610000
1.86271999,-1.33610000
1.86303999,-1.33610000
1.86335999,-1.33610000
1.86367999,-1.33610000
1.86399999,-1.42521400
1.86431999,-1.33610000
1.86463999,-1.33610000
1.86495999,-1.42521400
1.86527999,-1.33610000
1.86559999,-1.42521400
1.86591999,-1.33610000
1.86623999,-1.33610000
1.86655999,-1.42521400
1.86687999,-1.33610000
1.86719999,-1.42521400
1.86751999,-1.33610000
1.86783999,-1.42521400
1.86815999,-1.42521400
1.86847999,-1.42521400
1.86879999,-1.33610000
1.86911999,-1.42521400
1.86943999,-1.33610000
1.86975999,-1.33610000
1.87007999,-1.42521400
1.87039999,-1.42521400
1.87071999,-1.42521400
1.87103999,-1.33610000
1.87135999,-1.42521400
1.87167999,-1.42521400
1.87199999,-1.42521400
1.87231999,-1.42521400
1.87263999,-1.33610000
1.87295999,-1.33610000
1.87327999,-1.42521400
1.87359999,-1.42521400
1.87391999,-1.33610000
1.87423999,-1.42521400
1.87455999,-1.42521400
1.87487999,-1.42521400
1.87519999,-1.42521400
1.87551999,-1.42521400
1.87583999,-1.33610000
1.87615999,-1.42521400
1.87647999,-1.42521400
1.87679999,-1.42521400
1.87711999,-1.42521400
1.87743999,-1.42521400
1.87775999,-1.42521400
1.87807999,-1.33610000
1.87839999,-1.42521400
1.87871999,-1.33610000
1.87903999,-1.42521400
1.87935999,-1.33610000
1.87967999,-1.42521400
1.87999999,-1.33610000
1.88031999,-1.33610000
1.88063999,-1.33610000
1.88095999,-1.33610000
1.88127999,-1.33610000
1.88159999,-1.42521400
1.88191999,-1.33610000
1.88223999,-1.33610000
1.88255999,-1.33610000
1.88287999,-1.33610000
1.88319999,-1.42521400
1.88351999,-1.42521400
1.88383999,-1.33610000
1.88415999,-1.42521400
1.88447999,-1.42521400
1.88479999,-1.33610000
1.88511999,-1.33610000
1.88543999,-1.33610000
1.88575999,-1.33610000
1.88607999,-1.33610000
1.88639999,-1.33610000
1.88671999,-1.33610000
1.88703999,-1.33610000
1.88735999,-1.33610000
1.88767999,-1.42521400
1.88799999,-1.33610000
1.88831999,-1.42521400
1.88863999,-1.33610000
1.88895999,-1.33610000
1.88927999,-1.33610000
1.88959999,-1.33610000
1.88991999,-1.33610000
1.89023999,-1.33610000
1.89055999,-1.33610000
1.89087999,-1.33610000
1.89119999,-1.33610000
1.89151999,-1.33610000
1.89183999,-1.42521400
1.89215999,-1.33610000
1.89247999,-1.33610000
1.89279999,-1.33610000
1.89311999,-1.33610000
1.89343999,-1.33610000
1.89375999,-1.42521400
1.89407999,-1.33610000
1.89439999,-1.33610000
1.89471999,-1.33610000
1.89503999,-1.33610000
1.89535999,-1.42521400
1.89567999,-1.33610000
1.89599999,-1.42521400
1.89631999,-1.33610000
1.89663999,-1.33610000
1.89695999,-1.42521400
1.89727999,-1.33610000
1.89759999,-1.33610000
1.89791999,-1.33610000
1.89823999,-1.33610000
1.89855999,-1.33610000
1.89887999,-1.42521400
1.89919999,-1.33610000
1.89951999,-1.42521400
1.89983999,-1.33610000
1.90015999,-1.33610000
1.90047999,-1.33610000
1.90079999,-1.33610000
1.90111999,-1.42521400
1.90143999,-1.42521400
1.90175999,-1.33610000
1.90207999,-1.42521400
1.90239999,-1.33610000
1.90271999,-1.33610000
1.90303999,-1.33610000
1.90335999,-1.33610000
1.90367999,-1.33610000
1.90399999,-1.33610000
1.90431999,-1.33610000
1.90463999,-1.42521400
1.90495999,-1.33610000
1.90527999,-1.33610000
1.90559999,-1.33610000
1.90591999,-1.42521400
1.90623999,-1.42521400
1.90655999,-1.33610000
1.90687999,-1.42521400
1.90719999,-1.33610000
1.90751999,-1.33610000
1.90783999,-1.42521400
1.90815999,-1.42521400
1.90847999,-1.33610000
1.90879999,-1.33610000
1.90911999,-1.33610000
1.90943999,-1.42521400
1.90975999,-1.33610000
1.91007999,-1.33610000
1.91039999,-1.42521400
1.91071999,-1.42521400
1.91103999,-1.42521400
1.91135999,-1.42521400
1.91167999,-1.42521400
1.91199999,-1.33610000
1.91231999,-1.42521400
1.91263999,-1.33610000
1.91295999,-1.33610000
1.91327999,-1.42521400
1.91359999,-1.42521400
1.91391999,-1.42521400
1.91423999,-1.33610000
1.91455999,-1.42521400
1.91487999,-1.33610000
1.91519999,-1.33610000
1.91551999,-1.42521400
1.91583999,-1.33610000
1.91615999,-1.42521400
1.91647999,-1.33610000
1.91679999,-1.42521400
1.91711999,-1.42521400
1.91743999,-1.42521400
1.91775999,-1.42521400
1.91807999,-1.33610000
1.91839999,-1.33610000
1.91871999,-1.42521400
1.91903999,-1.42521400
1.91935999,-1.42521400
1.91967999,-1.42521400
1.91999999,-1.42521400
1.92031999,-1.42521400
1.92063999,-1.42521400
1.92095999,-1.33610000
1.92127999,-1.42521400
1.92159999,-1.33610000
1.92191999,-1.42521400
1.92223999,-1.33610000
1.92255999,-1.42521400
1.92287999,-1.33610000
1.92319999,-1.42521400
1.92351999,-1.42521400
1.92383999,-1.33610000
1.92415999,-1.42521400
1.92447999,-1.33610000
1.92479999,-1.33610000
1.92511999,-1.42521400
1.92543999,-1.42521400
1.92575999,-1.42521400
1.92607999,-1.42521400
1.92639999,-1.33610000
1.92671999,-1.33610000
1.92703999,-1.42521400
1.92735999,-1.42521400
1.92767999,-1.42521400
1.92799999,-1.42521400
1.92831999,-1.33610000
1.92863999,-1.42521400
1.92895999,-1.42521400
1.92927999,-1.42521400
1.92959999,-1.42521400
1.92991999,-1.33610000
1.93023999,-1.42521400
1.93055999,-1.33610000
1.93087999,-1.42521400
1.93119999,-1.42521400
1.93151999,-1.33610000
1.93183999,-1.33610000
1.93215999,-1.42521400
1.93247999,-1.33610000
1.93279999,-1.42521400
1.93311999,-1.33610000
1.93343999,-1.42521400
1.93375999,-1.42521400
1.93407999,-1.42521400
1.93439999,-1.42521400
1.93471999,-1.33610000
1.93503999,-1.33610000
1.93535999,-1.33610000
1.93567999,-1.33610000
1.93599999,-1.33610000
1.93631999,-1.33610000
1.93663999,-1.33610000
1.93695999,-1.42521400
1.93727999,-1.42521400
1.93759999,-1.33610000
1.93791999,-1.42521400
1.93823999,-1.33610000
1.93855999,-1.33610000
1.93887999,-1.42521400
1.93919999,-1.42521400
1.93951999,-1.33610000
1.93983999,-1.33610000
1.94015999,-1.33610000
1.94047999,-1.42521400
1.94079999,-1.33610000
1.94111999,-1.42521400
1.94143999,-1.33610000
1.94175999,-1.33610000
1.94207999,-1.42521400
1.94239999,-1.42521400
1.94271999,-1.42521400
1.94303999,-1.42521400
1.94335999,-1.33610000
1.94367999,-1.33610000
1.94399999,-1.42521400
1.94431999,-1.42521400
1.94463999,-1.42521400
1.94495999,-1.42521400
1.94527999,-1.42521400
1.94559999,-1.42521400
1.94591999,-1.33610000
1.94623999,-1.33610000
1.94655999,-1.42521400
1.94687999,-1.42521400
1.94719999,-1.33610000
1.94751999,-1.33610000
1.94783999,-1.42521400
1.94815999,-1.33610000
1.94847999,-1.42521400
1.94879999,-1.33610000
1.94911999,-1.33610000
1.94943999,-1.42521400
1.94975999,-1.42521400
1.95007999,-1.42521400
1.95039999,-1.42521400
1.95071999,-1.42521400
1.95103999,-1.42521400
1.95135999,-1.42521400
1.95167999,-1.33610000
1.95199999,-1.33610000
1.95231999,-1.33610000
1.95263999,-1.33610000
1.95295999,-1.42521400
1.95327999,-1.33610000
1.95359999,-1.42521400
1.95391999,-1.42521400
1.95423999,-1.33610000
1.95455999,-1.42521400
1.95487999,-1.42521400
1.95519999,-1.33610000
1.95551999,-1.42521400
1.95583999,-1.33610000
1.95615999,-1.42521400
1.95647999,-1.33610000
1.95679999,-1.42521400
1.95711999,-1.42521400
1.95743999,-1.33610000
1.95775999,-1.33610000
1.95807999,-1.42521400
1.95839999,-1.42521400
1.95871999,-1.42521400
1.95903999,-1.42521400
1.95935999,-1.33610000
1.95967999,-1.33610000
1.95999999,-1.33610000
1.96031999,-1.33610000
1.96063999,-1.33610000
1.96095999,-1.33610000
1.96127999,-1.33610000
1.96159999,-1.33610000
1.96191999,-1.33610000
1.96223999,-1.42521400
1.96255999,-1.33610000
1.96287999,-1.33610000
1.96319999,-1.42521400
1.96351999,-1.42521400
1.96383999,-1.42521400
1.96415999,-1.42521400
1.96447999,-1.42521400
1.96479999,-1.42521400
1.96511999,-1.33610000
1.96543999,-1.33610000
1.96575999,-1.42521400
1.96607999,-1.42521400
1.96639999,-1.33610000
1.96671999,-1.42521400
1.96703999,-1.42521400
1.96735999,-1.33610000
1.96767999,-1.42521400
1.96799999,-1.42521400
1.96831999,-1.33610000
1.96863999,-1.42521400
1.96895999,-1.33610000
1.96927999,-1.42521400
1.96959999,-1.33610000
1.96991999,-1.33610000
1.97023999,-1.42521400
1.97055999,-1.33610000
1.97087999,-1.42521400
1.97119999,-1.42521400
1.97151999,-1.42521400
1.97183999,-1.42521400
1.97215999,-1.42521400
1.97247999,-1.42521400
1.97279999,-1.42521400
1.97311999,-1.33610000
1.97343999,-1.42521400
1.97375999,-1.42521400
1.97407999,-1.42521400
1.97439999,-1.33610000
1.97471999,-1.42521400
1.97503999,-1.33610000
1.97535999,-1.42521400
1.97567999,-1.42521400
1.97599999,-1.33610000
1.97631999,-1.42521400
1.97663999,-1.42521400
1.97695999,-1.42521400
1.97727999,-1.33610000
1.97759999,-1.33610000
1.97791999,-1.42521400
1.97823999,-1.42521400
1.97855999,-1.33610000
1.97887999,-1.42521400
1.97919999,-1.33610000
1.97951999,-1.42521400
1.97983999,-1.42521400
1.98015999,-1.33610000
1.98047999,-1.33610000
1.98079999,-1.42521400
1.98111999,-1.42521400
1.98143999,-1.42521400
1.98175999,-1.33610000
1.98207999,-1.33610000
1.98239999,-1.42521400
1.98271999,-1.33610000
1.98303999,-1.42521400
1.98335999,-1.33610000
1.98367999,-1.33610000
1.98399999,-1.33610000
1.98431999,-1.42521400
1.98463999,-1.42521400
1.98495999,-1.42521400
1.98527999,-1.42521400
1.98559999,-1.42521400
1.98591999,-1.33610000
1.98623999,-1.42521400
1.98655999,-1.33610000
1.98687999,-1.42521400
1.98719999,-1.42521400
1.98751999,-1.33610000
1.98783999,-1.42521400
1.98815999,-1.42521400
1.98847999,-1.33610000
1.98879999,-1.33610000
1.98911999,-1.42521400
1.98943999,-1.42521400
1.98975999,-1.33610000
1.99007999,-1.42521400
1.99039999,-1.42521400
1.99071999,-1.33610000
1.99103999,-1.42521400
1.99135999,-1.33610000
1.99167999,-1.42521400
1.99199999,-1.33610000
1.99231999,-1.42521400
1.99263999,-1.33610000
1.99295999,-1.33610000
1.99327999,-1.42521400
1.99359999,-1.42521400
1.99391999,-1.42521400
1.99423999,-1.33610000
1.99455999,-1.42521400
1.99487999,-1.42521400
1.99519999,-1.33610000
1.99551999,-1.42521400
1.99583999,-1.42521400
1.99615999,-1.33610000
1.99647999,-1.42521400
1.99679999,-1.33610000
1.99711999,-1.33610000
1.99743999,-1.33610000
1.99775999,-1.42521400
1.99807999,-1.42521400
1.99839999,-1.42521400
1.99871999,-1.33610000
1.99903999,-1.42521400
1.99935999,-1.33610000
1.99967999,-1.42521400
1.99999999,-1.42521400
2.00031999,-1.42521400
2.00063999,-1.42521400
2.00095999,-1.33610000
2.00127999,-1.42521400
